SpectraSuite Data File
++++++++++++++++++++++++++++++++++++
Date: Mon Apr 24 13:43:03 ART 2023
User: guille
Dark Spectrum Present: No
Reference Spectrum Present: No
Number of Sampled Component Spectra: 1
Spectrometers: USB2+H13674
Integration Time (usec): 3000 (USB2+H13674)
Spectra Averaged: 10 (USB2+H13674)
Boxcar Smoothing: 0 (USB2+H13674)
Correct for Electrical Dark: No (USB2+H13674)
Strobe/Lamp Enabled: No (USB2+H13674)
Correct for Detector Non-linearity: No (USB2+H13674)
Correct for Stray Light: No (USB2+H13674)
Number of Pixels in Processed Spectrum: 2048
>>>>>Begin Processed Spectral Data<<<<<
339.87	0.00
340.25	0.00
340.63	0.00
341.02	0.00
341.40	0.00
341.78	0.00
342.16	0.00
342.55	0.00
342.93	0.00
343.31	0.00
343.69	0.00
344.08	0.00
344.46	0.00
344.84	0.00
345.22	0.00
345.60	0.00
345.99	0.00
346.37	0.00
346.75	0.00
347.13	0.00
347.51	0.00
347.90	0.00
348.28	0.00
348.66	0.00
349.04	0.00
349.42	0.00
349.80	0.00
350.19	0.00
350.57	0.00
350.95	0.00
351.33	0.00
351.71	0.00
352.09	0.00
352.47	0.00
352.86	0.00
353.24	0.00
353.62	0.00
354.00	0.00
354.38	0.00
354.76	0.00
355.14	0.00
355.52	0.00
355.90	0.00
356.28	2.18
356.67	0.00
357.05	0.00
357.43	0.00
357.81	0.00
358.19	0.00
358.57	0.00
358.95	1.09
359.33	2.18
359.71	0.00
360.09	0.00
360.47	0.00
360.85	0.55
361.23	0.00
361.61	0.00
361.99	0.00
362.37	0.00
362.75	0.00
363.13	0.00
363.51	0.00
363.89	0.00
364.27	0.00
364.65	0.00
365.03	0.00
365.41	0.00
365.79	0.00
366.17	0.00
366.55	0.00
366.93	0.00
367.31	0.00
367.69	0.00
368.07	0.00
368.45	0.00
368.83	0.00
369.21	3.00
369.59	0.00
369.97	0.00
370.35	0.00
370.73	0.00
371.11	0.00
371.49	3.28
371.87	0.00
372.25	0.00
372.62	0.00
373.00	0.00
373.38	0.00
373.76	0.00
374.14	0.00
374.52	0.00
374.90	0.00
375.28	0.00
375.66	0.00
376.03	0.00
376.41	0.00
376.79	3.55
377.17	0.00
377.55	0.55
377.93	0.82
378.31	0.00
378.68	5.73
379.06	0.00
379.44	3.28
379.82	1.09
380.20	0.00
380.58	0.00
380.95	5.19
381.33	0.55
381.71	2.18
382.09	0.00
382.47	3.00
382.85	11.74
383.22	11.74
383.60	2.46
383.98	14.20
384.36	13.65
384.73	31.13
385.11	29.76
385.49	53.25
385.87	69.08
386.25	77.28
386.62	80.28
387.00	115.51
387.38	150.46
387.76	114.69
388.13	138.72
388.51	167.93
388.89	167.39
389.26	236.47
389.64	270.88
390.02	312.93
390.40	354.16
390.77	368.36
391.15	411.51
391.53	489.87
391.90	484.69
392.28	486.87
392.66	458.20
393.04	345.70
393.41	244.66
393.79	197.97
394.17	317.30
394.54	469.67
394.92	637.33
395.30	743.82
395.67	829.84
396.05	826.83
396.42	666.55
396.80	491.24
397.18	392.12
397.55	542.85
397.93	841.31
398.31	1081.33
398.68	1227.96
399.06	1318.62
399.44	1424.84
399.81	1455.42
400.19	1566.83
400.56	1574.75
400.94	1643.02
401.32	1671.42
401.69	1805.49
402.07	1896.15
402.44	1942.29
402.82	2002.91
403.19	1977.79
403.57	1978.88
403.95	2044.15
404.32	2106.68
404.70	2053.70
405.07	2146.54
405.45	2154.74
405.82	2219.18
406.20	2195.42
406.57	2171.39
406.95	2214.81
407.32	2326.77
407.70	2360.63
408.07	2486.78
408.45	2518.46
408.82	2748.65
409.20	2803.26
409.57	2837.12
409.95	2673.55
410.32	2521.46
410.70	2497.43
411.07	2720.25
411.45	3073.05
411.82	3130.12
412.20	3161.52
412.57	3205.75
412.95	3059.94
413.32	3024.44
413.70	3125.47
414.07	3224.32
414.45	3226.78
414.82	3269.92
415.19	3239.61
415.57	3263.92
415.94	3443.05
416.32	3522.51
416.69	3660.40
417.07	3600.88
417.44	3458.06
417.81	3335.73
418.19	3452.06
418.56	3502.85
418.94	3547.90
419.31	3650.57
419.68	3695.08
420.06	3613.44
420.43	3594.87
420.80	3827.79
421.18	4147.00
421.55	4232.47
421.93	4285.72
422.30	4147.82
422.67	3871.75
423.05	3899.88
423.42	3935.38
423.79	4249.40
424.17	4370.37
424.54	4595.10
424.91	4490.51
425.29	4587.72
425.66	4524.92
426.03	4562.33
426.40	4779.14
426.78	4827.75
427.15	4850.96
427.52	4716.88
427.90	4726.17
428.27	5152.69
428.64	5169.07
429.02	5061.49
429.39	4986.94
429.76	4743.64
430.13	4509.35
430.51	4103.31
430.88	3934.56
431.25	4107.13
431.62	4948.17
432.00	5753.97
432.37	6332.87
432.74	5977.07
433.11	5984.16
433.48	6408.78
433.86	6260.50
434.23	5715.20
434.60	5737.59
434.97	6128.61
435.35	6507.63
435.72	6650.98
436.09	6850.87
436.46	7135.67
436.83	7210.22
437.21	7059.21
437.58	6814.55
437.95	6662.18
438.32	6263.23
438.69	6037.41
439.06	6134.90
439.44	6499.98
439.81	6851.41
440.18	7054.57
440.55	6838.85
440.92	6766.22
441.29	7007.06
441.66	7209.12
442.03	7471.54
442.41	7481.64
442.78	7716.75
443.15	7640.02
443.52	7639.20
443.89	7626.64
444.26	7719.20
444.63	7895.88
445.00	8016.30
445.37	7991.72
445.74	7641.38
446.12	7419.65
446.49	7551.27
446.86	7884.95
447.23	8292.36
447.60	8688.30
447.97	9011.61
448.34	8940.34
448.71	9053.93
449.08	9080.42
449.45	9251.63
449.82	9272.11
450.19	9643.20
450.56	10235.75
450.93	10382.66
451.30	10680.57
451.67	10552.77
452.04	10545.67
452.41	10623.22
452.78	10319.85
453.15	10076.83
453.52	10035.87
453.89	10526.01
454.26	11138.77
454.63	11488.01
455.00	11263.56
455.37	11197.20
455.74	11475.72
456.11	12289.72
456.48	12490.15
456.85	12986.31
457.22	12866.43
457.59	13229.33
457.96	13450.24
458.33	13185.37
458.70	13107.82
459.07	13385.52
459.43	13461.98
459.80	13590.05
460.17	13533.80
460.54	13995.27
460.91	14051.52
461.28	14499.62
461.65	14765.58
462.02	14942.53
462.39	15071.68
462.76	15429.67
463.12	15710.92
463.49	15548.18
463.86	15457.52
464.23	15173.54
464.60	14744.01
464.97	14681.75
465.34	14958.64
465.70	15231.97
466.07	15476.64
466.44	15336.83
466.81	15053.12
467.18	14630.69
467.55	15221.87
467.91	15496.57
468.28	15519.23
468.65	15841.72
469.02	15970.88
469.39	16145.37
469.75	16201.34
470.12	16000.37
470.49	15498.75
470.86	15503.67
471.23	15564.84
471.59	15969.51
471.96	16643.43
472.33	17161.43
472.70	17427.67
473.06	17207.85
473.43	16861.34
473.80	17271.48
474.17	17457.43
474.53	17887.51
474.90	18135.99
475.27	18403.32
475.64	18004.38
476.00	17850.37
476.37	17617.72
476.74	17980.07
477.11	17976.80
477.47	18534.12
477.84	19268.93
478.21	19609.44
478.57	19228.79
478.94	19195.75
479.31	19336.10
479.67	20233.93
480.04	20721.35
480.41	20559.15
480.77	20568.98
481.14	20506.72
481.51	20844.50
481.87	21347.21
482.24	21815.24
482.61	21820.70
482.97	21781.92
483.34	22151.38
483.71	22190.42
484.07	22209.54
484.44	22134.72
484.80	22489.97
485.17	22474.68
485.54	22050.62
485.90	20910.58
486.27	18879.27
486.63	18702.87
487.00	19587.05
487.37	21347.21
487.73	21988.08
488.10	23048.11
488.46	23548.64
488.83	23416.75
489.19	23073.51
489.56	23405.01
489.93	24774.41
490.29	25534.07
490.66	25310.71
491.02	25171.17
491.39	25386.35
491.75	24864.53
492.12	24175.04
492.48	23541.26
492.85	24540.40
493.21	25833.62
493.58	26188.61
493.94	25380.61
494.31	25841.82
494.67	26497.71
495.04	27139.95
495.40	27472.55
495.77	26351.62
496.13	26227.93
496.50	26154.20
496.86	26688.58
497.23	26704.42
497.59	26491.98
497.96	26517.65
498.32	25248.18
498.69	24537.67
499.05	24880.64
499.41	25626.64
499.78	26061.63
500.14	26056.44
500.51	25162.44
500.87	24891.83
501.24	24710.24
501.60	24620.41
501.96	24205.63
502.33	24705.88
502.69	24997.23
503.06	25439.05
503.42	25718.12
503.78	25264.83
504.15	24520.74
504.51	24325.23
504.88	24933.06
505.24	25169.26
505.60	25134.04
505.97	25703.10
506.33	25785.84
506.69	25489.02
507.06	25157.52
507.42	25070.69
507.78	24874.08
508.15	24640.07
508.51	24567.16
508.87	24832.30
509.24	25914.18
509.60	26322.68
509.96	25731.23
510.33	25713.48
510.69	25738.60
511.05	25667.33
511.41	26184.24
511.78	26538.40
512.14	26566.25
512.50	26436.27
512.87	25775.46
513.23	25362.59
513.59	25945.31
513.95	25656.68
514.32	25538.72
514.68	25335.01
515.04	25692.45
515.40	26088.12
515.77	26325.14
516.13	26425.08
516.49	25614.08
516.85	23688.72
517.22	22037.51
517.58	22836.49
517.94	24533.85
518.30	24975.93
518.66	24209.99
519.03	23941.57
519.39	25321.63
519.75	26060.27
520.11	26886.28
520.47	27151.97
520.83	26826.75
521.20	26852.97
521.56	27363.87
521.92	27876.68
522.28	27868.21
522.64	27725.40
523.00	27219.96
523.37	27194.02
523.73	28625.14
524.09	29542.36
524.45	30344.62
524.81	30785.07
525.17	30469.41
525.53	30223.38
525.89	30670.93
526.26	29863.48
526.62	28574.90
526.98	27112.92
527.34	27367.14
527.70	28852.33
528.06	30365.10
528.42	31229.34
528.78	31785.57
529.14	32653.36
529.50	33140.50
529.86	32276.81
530.22	31997.46
530.59	32593.83
530.95	33610.99
531.31	34029.32
531.67	33793.67
532.03	33092.99
532.39	32319.95
532.75	31170.63
533.11	30896.48
533.47	31590.60
533.83	32925.88
534.19	33331.65
534.55	33174.64
534.91	33657.68
535.27	34165.85
535.63	34648.08
535.99	35237.35
536.35	35181.37
536.71	34289.82
537.07	32749.75
537.43	33108.83
537.79	33943.58
538.15	35251.00
538.51	35388.08
538.87	35486.11
539.22	34916.23
539.58	34152.20
539.94	33584.23
540.30	33292.33
540.66	32850.24
541.02	32529.12
541.38	32713.43
541.74	33375.06
542.10	33530.98
542.46	33500.67
542.82	33188.29
543.18	32904.85
543.53	33041.65
543.89	33392.54
544.25	34586.64
544.61	34381.85
544.97	34186.88
545.33	33985.36
545.69	34339.79
546.05	33667.79
546.40	33735.78
546.76	33730.59
547.12	33695.37
547.48	33525.79
547.84	33108.28
548.20	33055.03
548.55	33702.19
548.91	34317.13
549.27	34731.09
549.63	34781.34
549.99	34818.75
550.34	34512.92
550.70	34352.63
551.06	34304.02
551.42	34297.47
551.78	34720.44
552.13	34938.89
552.49	34680.30
552.85	34196.98
553.21	33733.87
553.57	33262.02
553.92	33909.99
554.28	34017.31
554.64	34135.54
555.00	34329.14
555.35	34201.62
555.71	33579.86
556.07	32917.96
556.42	32349.71
556.78	31799.77
557.14	31656.95
557.50	31488.48
557.85	32269.43
558.21	32723.26
558.57	32487.61
558.92	31841.00
559.28	31622.28
559.64	32113.52
559.99	32203.35
560.35	32163.76
560.71	32855.97
561.06	33948.77
561.42	33444.97
561.78	32999.88
562.13	32195.71
562.49	32205.81
562.85	32000.19
563.20	31866.94
563.56	31981.90
563.92	31657.23
564.27	31674.70
564.63	31747.34
564.98	31844.55
565.34	31984.08
565.70	31197.12
566.05	30534.94
566.41	30780.42
566.76	31540.36
567.12	32031.32
567.48	32241.85
567.83	32317.22
568.19	31769.46
568.54	31446.42
568.90	30781.79
569.25	30858.79
569.61	31192.20
569.97	31056.76
570.32	30974.57
570.68	30136.82
571.03	29491.84
571.39	29374.97
571.74	30000.01
572.10	30731.27
572.45	31182.92
572.81	31029.73
573.16	30975.12
573.52	30690.59
573.87	30506.82
574.23	30394.04
574.58	30379.57
574.94	30330.42
575.29	30033.05
575.65	29761.90
576.00	29636.02
576.36	29754.26
576.71	29533.89
577.07	29522.15
577.42	29551.92
577.78	28991.59
578.13	28341.16
578.48	27842.00
578.84	27711.20
579.19	27755.98
579.55	27955.59
579.90	27721.85
580.26	28121.89
580.61	27743.15
580.96	27452.88
581.32	27370.15
581.67	27266.93
582.03	27171.36
582.38	26980.21
582.73	27373.97
583.09	27106.64
583.44	27153.34
583.79	26991.96
584.15	26944.72
584.50	26857.61
584.86	26581.00
585.21	26284.45
585.56	26052.89
585.92	25983.26
586.27	25822.16
586.62	26296.19
586.98	26565.16
587.33	26798.90
587.68	26398.04
588.04	26367.73
588.39	25995.55
588.74	24794.89
589.09	23623.46
589.45	22706.24
589.80	23144.23
590.15	23890.78
590.51	24902.48
590.86	25042.29
591.21	24933.34
591.56	24887.74
591.92	24555.96
592.27	24560.06
592.62	24924.33
592.97	24890.19
593.33	24647.44
593.68	24962.28
594.03	25042.02
594.38	24977.57
594.74	24342.16
595.09	24147.74
595.44	24014.21
595.79	24347.89
596.14	24646.62
596.50	24770.32
596.85	24932.52
597.20	24797.35
597.55	24865.89
597.90	24829.30
598.26	24756.39
598.61	24764.58
598.96	24293.55
599.31	24597.74
599.66	24923.78
600.01	24943.44
600.37	24908.76
600.72	24670.38
601.07	24671.74
601.42	24781.51
601.77	24778.51
602.12	24809.09
602.47	24789.16
602.83	24915.86
603.18	25392.35
603.53	25866.94
603.88	26025.59
604.23	26099.04
604.58	26345.07
604.93	26612.94
605.28	26639.70
605.63	26457.57
605.98	26307.39
606.33	26069.00
606.69	26233.66
607.04	26322.13
607.39	26290.46
607.74	26305.75
608.09	25867.21
608.44	25680.16
608.79	25823.79
609.14	26142.46
609.49	26081.29
609.84	26182.60
610.19	26199.25
610.54	25994.73
610.89	26265.61
611.24	26905.67
611.59	26816.92
611.94	26924.24
612.29	26806.00
612.64	26968.20
612.99	27075.51
613.34	27180.10
613.69	26905.94
614.04	26663.19
614.39	26897.20
614.74	27040.56
615.09	27084.52
615.44	26957.55
615.79	26663.19
616.14	26034.60
616.48	25896.70
616.83	25937.93
617.18	26089.76
617.53	26429.99
617.88	26832.76
618.23	27102.82
618.58	26769.41
618.93	26362.82
619.28	26256.60
619.63	26508.09
619.98	26834.12
620.32	27256.28
620.67	27712.57
621.02	28061.54
621.37	28046.80
621.72	27736.87
622.07	27635.02
622.42	27334.38
622.76	27508.32
623.11	27404.28
623.46	27281.13
623.81	27586.14
624.16	27499.03
624.51	27323.73
624.85	26874.54
625.20	26804.36
625.55	26726.27
625.90	26448.01
626.25	26676.57
626.59	27179.82
626.94	27424.21
627.29	26876.45
627.64	25961.96
627.99	25668.42
628.33	25469.36
628.68	25660.50
629.03	25912.54
629.38	25650.95
629.72	25020.17
630.07	24740.01
630.42	24845.14
630.77	25423.48
631.11	25939.30
631.46	25840.45
631.81	25749.52
632.16	25922.92
632.50	26080.75
632.85	26635.88
633.20	26611.31
633.54	26351.35
633.89	26265.88
634.24	26063.27
634.58	26362.27
634.93	26083.48
635.28	26048.25
635.63	25738.05
635.97	25249.54
636.32	24859.88
636.67	24907.12
637.01	24834.76
637.36	24997.51
637.70	24883.37
638.05	24809.37
638.40	24624.78
638.74	24672.56
639.09	24706.15
639.44	24652.63
639.78	24308.02
640.13	24290.27
640.47	24372.74
640.82	24424.62
641.17	24481.69
641.51	24749.84
641.86	25017.99
642.20	25128.85
642.55	25575.31
642.90	25227.70
643.24	24999.69
643.59	25061.13
643.93	25077.79
644.28	24862.07
644.62	24675.57
644.97	24764.31
645.31	24307.75
645.66	24116.06
646.00	23525.15
646.35	23195.57
646.70	22843.86
647.04	22808.64
647.39	22831.57
647.73	22705.42
648.08	23013.43
648.42	23268.75
648.77	23196.66
649.11	23227.24
649.46	22761.67
649.80	22511.82
650.14	22945.99
650.49	23224.24
650.83	23807.23
651.18	23841.09
651.52	23612.26
651.87	23417.84
652.21	23214.14
652.56	23357.22
652.90	23314.62
653.25	23636.84
653.59	23933.93
653.93	23991.27
654.28	23752.89
654.62	23774.19
654.97	23417.29
655.31	23135.77
655.65	22551.41
656.00	20928.60
656.34	19486.56
656.69	19343.75
657.03	20659.09
657.37	22003.92
657.72	22663.37
658.06	23427.40
658.40	23913.18
658.75	24016.94
659.09	24214.91
659.43	24182.14
659.78	24279.35
660.12	24397.04
660.46	25050.48
660.81	25147.42
661.15	25183.74
661.49	25458.71
661.84	25839.36
662.18	26295.37
662.52	26267.79
662.87	26414.15
663.21	26100.68
663.55	26046.34
663.89	25932.75
664.24	25929.20
664.58	26405.96
664.92	26730.91
665.26	27031.55
665.61	26709.34
665.95	26789.34
666.29	26552.05
666.63	26503.17
666.98	26500.72
667.32	26500.44
667.66	26339.61
668.00	26472.59
668.35	26598.75
668.69	27088.89
669.03	27431.59
669.37	27713.66
669.71	27953.68
670.06	28158.48
670.40	28519.19
670.74	28583.64
671.08	28492.16
671.42	28443.83
671.77	28029.59
672.11	28121.61
672.45	28500.08
672.79	28887.28
673.13	29186.56
673.47	29486.65
673.81	29791.12
674.16	29880.96
674.50	29696.09
674.84	29718.21
675.18	30089.85
675.52	30055.44
675.86	30474.87
676.20	30894.02
676.54	31043.66
676.88	31220.87
677.23	31162.71
677.57	31775.74
677.91	32160.48
678.25	32612.13
678.59	32972.57
678.93	33098.72
679.27	33511.05
679.61	33658.50
679.95	33604.44
680.29	34010.75
680.63	34461.58
680.97	34406.42
681.31	34205.45
681.65	33807.32
681.99	33682.26
682.33	33814.42
682.67	34018.95
683.01	34334.06
683.35	34520.02
683.69	34300.47
684.03	33908.36
684.37	34029.32
684.71	34564.52
685.05	35692.00
685.39	36132.45
685.73	35987.73
686.07	36056.81
686.41	34414.34
686.75	31451.61
687.09	27543.00
687.43	25527.52
687.77	26636.70
688.11	28999.51
688.45	30771.14
688.79	31050.21
689.13	30719.53
689.47	30909.31
689.80	31504.31
690.14	31965.79
690.48	33006.70
690.82	33878.86
691.16	34170.77
691.50	34883.73
691.84	35317.08
692.18	35919.46
692.52	36823.57
692.85	37317.54
693.19	37804.96
693.53	38076.11
693.87	38117.07
694.21	37942.03
694.55	37694.91
694.88	37877.32
695.22	38084.03
695.56	37922.37
695.90	38278.99
696.24	38375.11
696.58	38799.72
696.91	39216.96
697.25	39330.28
697.59	39377.80
697.93	38848.87
698.27	39017.90
698.60	39033.47
698.94	39190.20
699.28	39482.11
699.62	39727.86
699.95	39419.30
700.29	39395.82
700.63	39143.24
700.97	39206.86
701.30	39596.79
701.64	39458.62
701.98	39175.18
702.32	38732.00
702.65	38802.73
702.99	38539.77
703.33	38704.97
703.66	38704.15
704.00	38777.88
704.34	38738.83
704.68	39676.80
705.01	39493.85
705.35	39159.07
705.69	39366.06
706.02	39751.89
706.36	39648.95
706.70	39789.03
707.03	39880.23
707.37	40515.92
707.71	40942.17
708.04	41262.20
708.38	41381.53
708.72	41502.77
709.05	41569.94
709.39	42108.15
709.72	42311.03
710.06	42598.02
710.40	42841.32
710.73	42568.26
711.07	42342.71
711.40	41630.56
711.74	41167.18
712.08	40745.02
712.41	40246.41
712.75	40155.21
713.08	39748.07
713.42	39227.61
713.75	39684.72
714.09	40086.94
714.43	39968.16
714.76	39035.10
715.10	38457.03
715.43	38712.62
715.77	38574.17
716.10	38170.04
716.44	37518.24
716.77	36069.10
717.11	34603.85
717.44	33573.31
717.78	32961.37
718.11	32501.81
718.45	31765.91
718.78	31020.45
719.12	30323.04
719.45	30761.04
719.79	30641.71
720.12	30709.97
720.46	30497.26
720.79	31810.42
721.12	33140.78
721.46	34642.62
721.79	35162.53
722.13	35057.13
722.46	35141.23
722.80	35225.61
723.13	34602.21
723.46	33844.19
723.80	32801.91
724.13	32449.38
724.47	32756.30
724.80	32522.56
725.13	32314.76
725.47	32530.75
725.80	32754.12
726.14	33042.20
726.47	33385.71
726.80	33355.13
727.14	33376.70
727.47	33290.14
727.80	33032.10
728.14	33173.27
728.47	33656.59
728.80	33170.27
729.14	32796.99
729.47	32698.42
729.80	33521.70
730.14	33878.32
730.47	33787.12
730.80	33253.55
731.14	33254.64
731.47	33711.20
731.80	33911.36
732.14	34373.11
732.47	34537.76
732.80	34606.03
733.13	34880.46
733.47	35110.65
733.80	35357.50
734.13	35705.11
734.46	35639.84
734.80	35199.39
735.13	34987.77
735.46	34918.41
735.79	34954.73
736.13	35232.16
736.46	35541.00
736.79	35936.94
737.12	36759.67
737.45	37318.63
737.79	37392.09
738.12	37343.21
738.45	36598.02
738.78	35752.62
739.11	35335.38
739.45	35514.24
739.78	35564.75
740.11	35519.15
740.44	35219.33
740.77	34900.66
741.10	34674.57
741.44	34460.21
741.77	34566.98
742.10	34444.92
742.43	34741.20
742.76	35113.65
743.09	36104.60
743.42	36260.52
743.75	36620.68
744.08	36022.40
744.42	35652.13
744.75	35909.36
745.08	36485.25
745.41	37339.66
745.74	37927.29
746.07	38078.84
746.40	38039.52
746.73	37873.50
747.06	38027.78
747.39	37865.85
747.72	37773.83
748.05	37428.40
748.38	37060.04
748.71	36984.68
749.04	36439.37
749.37	36070.74
749.71	36071.56
750.04	35797.13
750.37	36140.91
750.70	36113.88
751.03	35395.45
751.36	35734.32
751.69	35896.52
752.02	36203.72
752.34	36372.47
752.67	36325.50
753.00	36171.50
753.33	35955.50
753.66	35994.55
753.99	35902.53
754.32	36101.87
754.65	36351.17
754.98	36189.25
755.31	36052.17
755.64	35914.82
755.97	36100.23
756.30	35825.25
756.63	35769.28
756.96	35819.25
757.29	35923.01
757.61	36135.18
757.94	36434.18
758.27	35867.85
758.60	35511.51
758.93	34312.49
759.26	30513.64
759.59	23997.01
759.92	16102.22
760.24	10146.46
760.57	7010.06
760.90	5927.64
761.23	7211.03
761.56	11077.33
761.89	15261.19
762.22	17316.80
762.54	16467.03
762.87	14335.78
763.20	13377.33
763.53	13295.96
763.86	13728.22
764.18	14577.71
764.51	16067.54
764.84	17663.05
765.17	18991.22
765.50	20577.72
765.82	21850.19
766.15	22902.02
766.48	23922.46
766.81	25307.71
767.13	26874.54
767.46	27816.88
767.79	28797.17
768.12	29359.41
768.44	30276.62
768.77	30519.38
769.10	30999.42
769.42	31149.60
769.75	31262.38
770.08	31288.32
770.41	31867.49
770.73	31911.45
771.06	31190.84
771.39	30812.37
771.71	30473.78
772.04	30333.69
772.37	30204.26
772.69	30150.47
773.02	29863.48
773.35	29662.23
773.67	29701.55
774.00	29339.47
774.33	28884.55
774.65	28212.82
774.98	28025.22
775.30	28324.50
775.63	28485.33
775.96	28538.31
776.28	28626.51
776.61	28330.78
776.93	28423.62
777.26	28056.35
777.59	27657.95
777.91	27214.23
778.24	27200.03
778.56	26787.16
778.89	26750.84
779.22	26304.93
779.54	26099.31
779.87	25823.25
780.19	25916.36
780.52	25811.78
780.84	25826.80
781.17	26118.43
781.49	26338.24
781.82	26562.70
782.14	26541.40
782.47	26623.32
782.79	26476.69
783.12	26302.20
783.44	26029.41
783.77	25588.41
784.09	25149.88
784.42	25307.16
784.74	25028.09
