SpectraSuite Data File
++++++++++++++++++++++++++++++++++++
Date: Mon Apr 24 13:45:12 ART 2023
User: guille
Dark Spectrum Present: No
Reference Spectrum Present: No
Number of Sampled Component Spectra: 1
Spectrometers: USB2+H13674
Integration Time (usec): 3000 (USB2+H13674)
Spectra Averaged: 10 (USB2+H13674)
Boxcar Smoothing: 0 (USB2+H13674)
Correct for Electrical Dark: No (USB2+H13674)
Strobe/Lamp Enabled: No (USB2+H13674)
Correct for Detector Non-linearity: No (USB2+H13674)
Correct for Stray Light: No (USB2+H13674)
Number of Pixels in Processed Spectrum: 2048
>>>>>Begin Processed Spectral Data<<<<<
339.87	0.00
340.25	0.00
340.63	0.00
341.02	0.00
341.40	0.00
341.78	0.00
342.16	0.00
342.55	0.00
342.93	0.00
343.31	0.00
343.69	0.00
344.08	0.00
344.46	0.00
344.84	0.00
345.22	0.00
345.60	0.00
345.99	0.00
346.37	0.00
346.75	0.00
347.13	0.00
347.51	0.00
347.90	0.00
348.28	0.00
348.66	0.00
349.04	0.00
349.42	0.00
349.80	0.00
350.19	0.00
350.57	0.00
350.95	0.00
351.33	0.00
351.71	0.00
352.09	0.00
352.47	0.00
352.86	0.00
353.24	0.00
353.62	0.00
354.00	0.00
354.38	0.00
354.76	0.00
355.14	0.00
355.52	0.00
355.90	0.00
356.28	0.00
356.67	0.00
357.05	0.00
357.43	0.00
357.81	0.00
358.19	0.00
358.57	0.00
358.95	0.00
359.33	0.00
359.71	0.00
360.09	0.00
360.47	0.00
360.85	0.00
361.23	0.00
361.61	0.00
361.99	0.00
362.37	0.00
362.75	0.00
363.13	0.00
363.51	0.00
363.89	0.00
364.27	0.00
364.65	0.00
365.03	0.00
365.41	0.00
365.79	0.00
366.17	0.00
366.55	0.00
366.93	0.00
367.31	0.00
367.69	0.00
368.07	0.00
368.45	0.00
368.83	0.00
369.21	0.00
369.59	0.00
369.97	0.00
370.35	0.00
370.73	0.00
371.11	0.00
371.49	0.00
371.87	0.00
372.25	0.00
372.62	0.00
373.00	0.00
373.38	0.00
373.76	0.00
374.14	0.00
374.52	0.00
374.90	0.00
375.28	0.00
375.66	0.00
376.03	0.00
376.41	0.00
376.79	0.00
377.17	0.00
377.55	0.00
377.93	0.00
378.31	0.00
378.68	0.00
379.06	0.00
379.44	0.00
379.82	0.00
380.20	0.00
380.58	0.00
380.95	0.00
381.33	0.00
381.71	0.00
382.09	0.00
382.47	0.00
382.85	0.00
383.22	0.00
383.60	0.00
383.98	0.00
384.36	0.00
384.73	0.00
385.11	3.00
385.49	11.74
385.87	0.82
386.25	10.65
386.62	15.84
387.00	37.96
387.38	45.87
387.76	64.72
388.13	81.65
388.51	70.18
388.89	86.29
389.26	145.82
389.64	195.79
390.02	249.03
390.40	278.80
390.77	268.97
391.15	329.31
391.53	419.97
391.90	392.94
392.28	386.11
392.66	344.06
393.04	252.31
393.41	144.45
393.79	105.40
394.17	242.75
394.54	388.29
394.92	498.34
395.30	655.08
395.67	724.43
396.05	711.60
396.42	597.46
396.80	383.11
397.18	288.08
397.55	473.22
397.93	767.31
398.31	999.41
398.68	1140.04
399.06	1247.08
399.44	1340.74
399.81	1388.25
400.19	1472.08
400.56	1507.85
400.94	1532.15
401.32	1621.72
401.69	1716.47
402.07	1813.68
402.44	1846.18
402.82	1909.25
403.19	1827.06
403.57	1846.99
403.95	1950.49
404.32	2006.74
404.70	1875.39
405.07	2015.20
405.45	2091.39
405.82	2132.35
406.20	2119.51
406.57	2109.13
406.95	2138.90
407.32	2198.43
407.70	2283.08
408.07	2394.21
408.45	2435.17
408.82	2673.01
409.20	2712.88
409.57	2695.95
409.95	2545.76
410.32	2406.50
410.70	2412.51
411.07	2642.43
411.45	2877.53
411.82	3038.37
412.20	3004.51
412.57	3056.39
412.95	3027.17
413.32	2969.01
413.70	3084.24
414.07	3122.74
414.45	3133.94
414.82	3072.77
415.19	3107.72
415.57	3166.43
415.94	3333.00
416.32	3422.57
416.69	3456.15
417.07	3468.99
417.44	3376.42
417.81	3247.81
418.19	3320.71
418.56	3396.62
418.94	3407.55
419.31	3588.59
419.68	3610.71
420.06	3509.67
420.43	3537.25
420.80	3712.83
421.18	4006.10
421.55	3995.45
421.93	4008.83
422.30	3994.09
422.67	3729.49
423.05	3766.35
423.42	3859.74
423.79	4159.29
424.17	4211.72
424.54	4406.96
424.91	4349.07
425.29	4415.97
425.66	4491.33
426.03	4454.20
426.40	4672.92
426.78	4744.46
427.15	4718.25
427.52	4607.11
427.90	4574.62
428.27	4909.94
428.64	5023.80
429.02	4994.59
429.39	4887.00
429.76	4623.49
430.13	4330.23
430.51	4038.05
430.88	3767.72
431.25	4111.23
431.62	5018.62
432.00	5897.60
432.37	6386.93
432.74	6074.28
433.11	5976.52
433.48	6367.27
433.86	6241.39
434.23	5580.85
434.60	5669.05
434.97	6018.57
435.35	6417.79
435.72	6442.09
436.09	6715.43
436.46	6873.26
436.83	6976.20
437.21	6914.49
437.58	6650.98
437.95	6588.18
438.32	6247.67
438.69	6051.34
439.06	6042.05
439.44	6432.26
439.81	6717.61
440.18	6877.35
440.55	6724.16
440.92	6676.38
441.29	6956.27
441.66	7209.40
442.03	7483.55
442.41	7534.89
442.78	7698.45
443.15	7614.07
443.52	7564.10
443.89	7553.18
444.26	7618.17
444.63	7779.82
445.00	7890.41
445.37	7817.51
445.74	7579.94
446.12	7312.61
446.49	7552.91
446.86	7815.32
447.23	8217.27
447.60	8565.42
447.97	8708.24
448.34	8561.33
448.71	8649.25
449.08	8702.50
449.45	9010.24
449.82	9044.92
450.19	9441.96
450.56	10030.95
450.93	10189.33
451.30	10472.77
451.67	10450.65
452.04	10500.89
452.41	10539.94
452.78	10230.01
453.15	9982.89
453.52	9912.71
453.89	10350.98
454.26	11116.92
454.63	11472.45
455.00	11344.93
455.37	11189.01
455.74	11394.08
456.11	12046.97
456.48	12104.59
456.85	12522.65
457.22	12590.64
457.59	13094.17
457.96	13135.67
458.33	12943.98
458.70	12782.60
459.07	13043.92
459.43	13199.84
459.80	13486.28
460.17	13469.08
460.54	13917.18
460.91	14001.01
461.28	14409.51
461.65	14600.11
462.02	14798.08
462.39	14758.21
462.76	14944.71
463.12	15349.39
463.49	15229.24
463.86	15241.26
464.23	15216.68
464.60	14751.93
464.97	14703.05
465.34	14982.67
465.70	15512.13
466.07	15662.59
466.44	15684.71
466.81	15246.72
467.18	14724.90
467.55	15086.70
467.91	15461.62
468.28	15454.79
468.65	15906.44
469.02	15940.02
469.39	16158.20
469.75	16300.47
470.12	16031.77
470.49	15384.34
470.86	15506.67
471.23	15791.75
471.59	16165.03
471.96	16792.25
472.33	17359.68
472.70	17470.81
473.06	17032.00
473.43	16446.55
473.80	16848.78
474.17	17107.91
474.53	17759.71
474.90	18014.75
475.27	18216.00
475.64	17933.38
476.00	17675.61
476.37	17701.28
476.74	18061.45
477.11	17997.55
477.47	18469.13
477.84	19203.12
478.21	19608.89
478.57	19542.81
478.94	19228.24
479.31	19374.60
479.67	20130.44
480.04	20310.93
480.41	19905.44
480.77	20295.64
481.14	20464.67
481.51	20915.77
481.87	21481.01
482.24	21750.52
482.61	21697.82
482.97	21637.20
483.34	21834.90
483.71	21748.61
484.07	21666.42
484.44	21850.46
484.80	22284.63
485.17	22282.72
485.54	21839.81
485.90	20606.66
486.27	18552.41
486.63	18594.19
487.00	19847.27
487.37	21429.67
487.73	22359.45
488.10	23276.67
488.46	23731.32
488.83	23519.69
489.19	22889.19
489.56	23361.59
489.93	24541.22
490.29	25155.88
490.66	24933.61
491.02	24612.49
491.39	24563.61
491.75	24001.10
492.12	23199.12
492.48	22639.88
492.85	23736.50
493.21	25099.36
493.58	25268.11
493.94	24448.38
494.31	25026.45
494.67	25702.55
495.04	26421.80
495.40	26660.18
495.77	25757.71
496.13	25667.88
496.50	25947.49
496.86	26363.64
497.23	26437.91
497.59	26196.80
497.96	26328.41
498.32	25444.51
498.69	24666.28
499.05	24972.93
499.41	25582.68
499.78	25567.11
500.14	25285.31
500.51	24543.95
500.87	24133.81
501.24	24064.73
501.60	23873.58
501.96	23676.70
502.33	24054.35
502.69	24261.60
503.06	24896.75
503.42	25081.61
503.78	24718.44
504.15	24115.51
504.51	24173.68
504.88	25015.53
505.24	25385.80
505.60	25797.03
505.97	26283.63
506.33	26195.43
506.69	25723.85
507.06	25291.05
507.42	24998.60
507.78	24721.17
508.15	24252.32
508.51	24342.43
508.87	24599.11
509.24	25745.42
509.60	25911.72
509.96	25585.41
510.33	25457.89
510.69	25312.07
511.05	25209.40
511.41	25895.06
511.78	26170.04
512.14	26161.85
512.50	25709.11
512.87	25255.55
513.23	25061.68
513.59	25637.29
513.95	25235.62
514.32	25170.63
514.68	25081.34
515.04	25563.57
515.40	25863.93
515.77	26151.47
516.13	26328.96
516.49	25148.78
516.85	23142.59
517.22	21318.81
517.58	22109.32
517.94	23991.00
518.30	24700.41
518.66	24176.13
519.03	24269.25
519.39	25651.22
519.75	26263.70
520.11	26713.16
520.47	27068.14
520.83	26956.73
521.20	26934.61
521.56	27478.83
521.92	28608.49
522.28	28882.09
522.64	28589.92
523.00	28036.97
523.37	27660.41
523.73	28707.61
524.09	29440.78
524.45	29998.10
524.81	30302.84
525.17	29905.80
525.53	29895.70
525.89	30235.39
526.26	29400.09
526.62	28095.13
526.98	26551.51
527.34	26951.00
527.70	28517.83
528.06	29967.79
528.42	30513.37
528.78	30925.15
529.14	31790.48
529.50	32197.35
529.86	31666.51
530.22	31327.37
530.59	32256.33
530.95	33765.82
531.31	34105.78
531.67	34128.72
532.03	33620.00
532.39	32525.02
532.75	31083.80
533.11	30486.06
533.47	31270.84
533.83	32352.72
534.19	32887.10
534.55	32721.35
534.91	32775.15
535.27	33062.95
535.63	33465.72
535.99	33900.44
536.35	33709.57
536.71	33003.97
537.07	32237.49
537.43	33048.48
537.79	33709.02
538.15	34642.89
538.51	34585.28
538.87	34426.63
539.22	33948.50
539.58	33265.84
539.94	32845.60
540.30	32676.57
540.66	32035.15
541.02	31889.88
541.38	32404.87
541.74	33444.97
542.10	33917.64
542.46	33881.32
542.82	33928.29
543.18	33719.12
543.53	33854.02
543.89	34275.35
544.25	34979.03
544.61	34878.00
544.97	34648.35
545.33	34359.45
545.69	34928.79
546.05	34297.20
546.40	34397.96
546.76	34234.12
547.12	34408.88
547.48	34245.59
547.84	33245.09
548.20	33213.68
548.55	33600.07
548.91	34046.80
549.27	34269.07
549.63	34316.86
549.99	34165.85
550.34	33878.86
550.70	33649.76
551.06	33544.91
551.42	33345.30
551.78	33477.19
552.13	33924.74
552.49	33849.37
552.85	33731.14
553.21	33326.46
553.57	33005.06
553.92	33579.04
554.28	33573.03
554.64	33276.76
555.00	33635.29
555.35	33320.72
555.71	33093.54
556.07	33066.23
556.42	32638.34
556.78	32115.70
557.14	32214.82
557.50	31977.80
557.85	32309.30
558.21	32318.31
558.57	31857.93
558.92	31184.83
559.28	30695.23
559.64	30887.19
559.99	31138.96
560.35	30953.27
560.71	31625.28
561.06	32389.31
561.42	31938.76
561.78	31328.73
562.13	31066.59
562.49	31340.75
562.85	31699.01
563.20	31606.44
563.56	31335.01
563.92	31063.86
564.27	30935.52
564.63	30725.81
564.98	30687.04
565.34	30802.82
565.70	30306.93
566.05	29479.01
566.41	29481.47
566.76	30215.18
567.12	30621.23
567.48	30884.73
567.83	31131.58
568.19	30785.07
568.54	30538.49
568.90	30079.47
569.25	30186.24
569.61	30283.18
569.97	30370.56
570.32	30315.40
570.68	29659.23
571.03	28881.27
571.39	28698.32
571.74	29132.22
572.10	29977.62
572.45	30658.91
572.81	30882.82
573.16	30981.94
573.52	31046.11
573.87	31058.13
574.23	30829.58
574.58	30273.35
574.94	29975.98
575.29	29493.48
575.65	29249.64
576.00	29286.23
576.36	29525.16
576.71	29593.15
577.07	29817.33
577.42	29935.57
577.78	29482.56
578.13	28892.47
578.48	28240.40
578.84	28240.67
579.19	28009.66
579.55	27889.24
579.90	27553.10
580.26	27597.33
580.61	27570.85
580.96	27431.86
581.32	27308.98
581.67	27673.79
582.03	27708.47
582.38	27571.67
582.73	27658.77
583.09	27201.67
583.44	27333.83
583.79	27286.59
584.15	27431.31
584.50	27421.21
584.86	27306.25
585.21	26863.07
585.56	26440.10
585.92	25838.27
586.27	25398.91
586.62	25647.94
586.98	25800.58
587.33	26013.57
587.68	26047.98
588.04	26114.61
588.39	25750.07
588.74	24738.10
589.09	23561.74
589.45	22410.51
589.80	22775.05
590.15	23315.17
590.51	24458.21
590.86	25032.73
591.21	24948.63
591.56	24726.90
591.92	24535.21
592.27	24734.00
592.62	25101.27
592.97	24991.50
593.33	24783.97
593.68	24751.75
594.03	24812.92
594.38	24767.31
594.74	24268.70
595.09	24160.30
595.44	24162.75
595.79	24679.12
596.14	24925.96
596.50	24953.00
596.85	24890.47
597.20	24912.31
597.55	24726.08
597.90	24444.28
598.26	24187.06
598.61	24298.47
598.96	24084.39
599.31	24439.09
599.66	24687.31
600.01	24887.74
600.37	25011.43
600.72	24756.67
601.07	24756.94
601.42	24635.97
601.77	24511.18
602.12	24373.56
602.47	24404.96
602.83	24461.76
603.18	24780.97
603.53	25063.31
603.88	25170.90
604.23	25101.00
604.58	25270.02
604.93	25552.37
605.28	25702.83
605.63	25878.68
605.98	25961.42
606.33	25826.52
606.69	25899.98
607.04	26053.71
607.39	26071.46
607.74	26152.83
608.09	25935.75
608.44	26033.78
608.79	26036.78
609.14	26348.35
609.49	26173.59
609.84	25909.54
610.19	25917.18
610.54	25477.00
610.89	25798.13
611.24	26342.34
611.59	26532.39
611.94	26314.76
612.29	26107.51
612.64	26061.08
612.99	26052.62
613.34	26069.28
613.69	25999.92
614.04	25899.43
614.39	26052.07
614.74	26566.25
615.09	26729.00
615.44	26785.52
615.79	26597.93
616.14	25937.11
616.48	25829.53
616.83	25942.58
617.18	26140.27
617.53	26404.60
617.88	26565.16
618.23	26729.54
618.58	26873.99
618.93	26839.04
619.28	26840.41
619.63	27393.90
619.98	27674.61
620.32	27854.01
620.67	28005.84
621.02	27940.85
621.37	27555.28
621.72	27066.50
622.07	27009.16
622.42	27010.52
622.76	27068.96
623.11	27101.73
623.46	26984.04
623.81	26851.33
624.16	26691.31
624.51	26648.72
624.85	26389.85
625.20	26384.94
625.55	26337.15
625.90	26217.00
626.25	26546.04
626.59	26877.81
626.94	27111.56
627.29	26718.07
627.64	26002.38
627.99	25623.91
628.33	25255.55
628.68	25441.51
629.03	25878.13
629.38	26021.49
629.72	25840.45
630.07	25339.93
630.42	25356.04
630.77	25572.85
631.11	26079.93
631.46	25902.71
631.81	25720.58
632.16	25886.05
632.50	26010.84
632.85	26303.02
633.20	26132.63
633.54	25574.49
633.89	25099.36
634.24	24727.17
634.58	24800.90
634.93	25106.19
635.28	25418.57
635.63	25286.41
635.97	25027.82
636.32	25029.45
636.67	24904.94
637.01	24718.16
637.36	24848.41
637.70	24905.21
638.05	24557.06
638.40	24371.37
638.74	24389.12
639.09	24107.60
639.44	23882.59
639.78	23483.10
640.13	23317.35
640.47	23249.36
640.82	23327.18
641.17	23102.18
641.51	22939.16
641.86	23109.83
642.20	23055.49
642.55	23421.94
642.90	23448.97
643.24	23354.49
643.59	23394.36
643.93	23547.27
644.28	23376.33
644.62	23220.96
644.97	23341.38
645.31	23169.63
645.66	23148.60
646.00	22821.20
646.35	22846.32
646.70	22712.79
647.04	22907.21
647.39	22987.22
647.73	22992.41
648.08	23245.26
648.42	23473.54
648.77	23052.48
649.11	23086.34
649.46	22320.67
649.80	22057.72
650.14	22183.60
650.49	22634.70
650.83	22921.41
651.18	22976.84
651.52	22599.20
651.87	22609.03
652.21	22418.16
652.56	22691.22
652.90	22795.53
653.25	22977.94
653.59	22955.55
653.93	23031.73
654.28	23221.51
654.62	23448.42
654.97	23090.44
655.31	22650.53
655.65	22122.16
656.00	20471.77
656.34	19079.70
656.69	18775.50
657.03	19918.54
657.37	21247.27
657.72	22062.63
658.06	22807.55
658.40	23318.45
658.75	23528.43
659.09	23681.07
659.43	23698.82
659.78	23738.69
660.12	23770.36
660.46	23981.44
660.81	24179.14
661.15	24098.86
661.49	24297.37
661.84	24501.63
662.18	24745.20
662.52	24746.84
662.87	24859.06
663.21	24695.23
663.55	24734.55
663.89	24907.94
664.24	25009.25
664.58	25398.91
664.92	25587.32
665.26	26124.98
665.61	26081.84
665.95	26317.76
666.29	26223.56
666.63	26012.48
666.98	26143.28
667.32	26270.52
667.66	26209.63
668.00	26280.90
668.35	26432.72
668.69	26974.75
669.03	27353.49
669.37	27784.38
669.71	28135.81
670.06	28310.03
670.40	28900.66
670.74	29072.42
671.08	28749.11
671.42	28740.92
671.77	28432.63
672.11	28068.09
672.45	28215.82
672.79	28577.63
673.13	28762.22
673.47	28792.80
673.81	29099.45
674.16	29376.06
674.50	29664.96
674.84	29706.74
675.18	30230.20
675.52	30328.23
675.86	30784.79
676.20	30939.62
676.54	30986.86
676.88	30826.30
677.23	30711.34
677.57	31103.18
677.91	31219.78
678.25	31617.09
678.59	31896.16
678.93	32090.03
679.27	32348.08
679.61	32149.29
679.95	32165.67
680.29	32394.50
680.63	32605.03
680.97	32774.87
681.31	32981.85
681.65	33094.08
681.99	33303.52
682.33	33496.03
682.67	33796.95
683.01	34360.00
683.35	34690.13
683.69	34834.86
684.03	34742.01
684.37	34861.07
684.71	35101.64
685.05	35356.95
685.39	35640.66
685.73	35492.94
686.07	35233.25
686.41	34009.12
686.75	31365.60
687.09	27908.08
687.43	25598.79
687.77	26563.25
688.11	28787.61
688.45	30891.56
688.79	31676.62
689.13	31489.02
689.47	31211.59
689.80	31255.83
690.14	31127.49
690.48	31651.49
690.82	32203.35
691.16	32531.30
691.50	33573.58
691.84	34103.87
692.18	34350.99
692.52	35080.61
692.85	35367.60
693.19	35785.93
693.53	36082.75
693.87	35922.74
694.21	35472.73
694.55	35635.48
694.88	36302.84
695.22	36740.56
695.56	37023.73
695.90	37647.95
696.24	38109.97
696.58	38436.28
696.91	38795.90
697.25	39009.98
697.59	38786.62
697.93	38724.36
698.27	38282.00
698.60	38008.12
698.94	37997.47
699.28	37656.41
699.62	37194.66
699.95	37012.53
700.29	36662.19
700.63	36364.01
700.97	35865.39
701.30	36248.77
701.64	36267.62
701.98	36171.50
702.32	36471.05
702.65	37099.36
702.99	37739.42
703.33	38327.05
703.66	39245.36
704.00	39653.32
704.34	39678.71
704.68	40370.93
705.01	40380.76
705.35	40411.34
705.69	40370.65
706.02	40415.16
706.36	40542.95
706.70	40888.38
707.03	40384.58
707.37	40732.19
707.71	40401.24
708.04	40068.37
708.38	39992.46
708.72	39244.27
709.05	39463.27
709.39	39677.62
709.72	39491.66
710.06	39460.81
710.40	39283.04
710.73	39098.18
711.07	38920.69
711.40	38891.47
711.74	38645.17
712.08	38636.43
712.41	38490.07
712.75	38498.26
713.08	38385.76
713.42	38124.99
713.75	38323.50
714.09	38879.46
714.43	38699.78
714.76	38186.70
715.10	37597.16
715.43	38011.67
715.77	37678.26
716.10	36910.13
716.44	35735.14
716.77	34435.64
717.11	33419.57
717.44	32633.43
717.78	31882.23
718.11	31372.97
718.45	30592.28
718.78	30056.54
719.12	29666.06
719.45	29929.56
719.79	30174.77
720.12	30470.77
720.46	30455.21
720.79	31385.53
721.12	32904.30
721.46	34917.32
721.79	35731.59
722.13	35990.46
722.46	35526.25
722.80	35273.94
723.13	34199.99
723.46	33200.03
723.80	32273.26
724.13	31829.26
724.47	31985.18
724.80	31990.64
725.13	32062.18
725.47	32378.93
725.80	32775.42
726.14	33006.16
726.47	33118.11
726.80	33347.76
727.14	33458.62
727.47	33665.33
727.80	33280.86
728.14	33465.17
728.47	34081.75
728.80	33506.95
729.14	33035.37
729.47	32892.29
729.80	33561.02
730.14	33809.78
730.47	33713.66
730.80	33339.02
731.14	33194.57
731.47	33464.36
731.80	33339.29
732.14	33758.99
732.47	33739.60
732.80	34035.60
733.13	34397.96
733.47	34644.26
733.80	35087.17
734.13	35523.52
734.46	35726.41
734.80	35237.08
735.13	35355.59
735.46	35123.76
735.79	34829.39
736.13	34652.72
736.46	34166.95
736.79	34066.19
737.12	34154.38
737.45	34306.21
737.79	34340.61
738.12	34375.84
738.45	33932.38
738.78	33344.21
739.11	33166.72
739.45	33349.94
739.78	33712.30
740.11	34246.95
740.44	34157.12
740.77	34215.55
741.10	34276.72
741.44	34299.38
741.77	34267.16
742.10	34316.86
742.43	34574.63
742.76	34907.49
743.09	35602.98
743.42	35529.53
743.75	36106.51
744.08	35923.28
744.42	35630.83
744.75	35287.87
745.08	35101.64
745.41	35119.93
745.74	35105.46
746.07	34973.03
746.40	34838.41
746.73	34757.58
747.06	34993.78
747.39	35225.88
747.72	35375.52
748.05	35153.79
748.38	35326.64
748.71	35322.82
749.04	34955.28
749.37	34560.70
749.71	34278.08
750.04	33989.45
750.37	34349.62
750.70	33941.67
751.03	33677.07
751.36	33478.83
751.69	33308.98
752.02	33797.76
752.34	33674.61
752.67	33636.38
753.00	33648.67
753.33	33786.30
753.66	34044.61
753.99	34186.06
754.32	34150.83
754.65	34262.24
754.98	34230.84
755.31	34101.68
755.64	34146.19
755.97	34426.90
756.30	33983.72
756.63	33687.99
756.96	33460.26
757.29	33336.84
757.61	33300.52
757.94	33249.73
758.27	32603.39
758.60	32028.87
758.93	31031.37
759.26	27545.18
759.59	22088.57
759.92	15327.54
760.24	9688.53
760.57	6600.47
760.90	5504.94
761.23	6449.19
761.56	9678.70
761.89	13362.31
762.22	15585.86
762.54	15101.72
762.87	13265.10
763.20	12437.18
763.53	12445.64
763.86	12995.04
764.18	13908.44
764.51	15294.23
764.84	16842.50
765.17	18120.43
765.50	19788.29
765.82	21208.76
766.15	22409.69
766.48	23587.68
766.81	24925.42
767.13	26343.16
767.46	27337.11
767.79	28165.58
768.12	28599.47
768.44	28918.14
768.77	28832.12
769.10	28662.55
769.42	28371.47
769.75	28153.02
770.08	28136.09
770.41	28642.89
770.73	29077.33
771.06	28736.55
771.39	28851.24
771.71	28973.30
772.04	29302.61
772.37	29527.07
772.69	29497.58
773.02	29454.98
773.35	29323.36
773.67	29407.47
774.00	28961.01
774.33	28595.38
774.65	27858.11
774.98	27502.04
775.30	27518.42
775.63	27794.21
775.96	27826.98
776.28	28029.87
776.61	27969.25
776.93	27897.43
777.26	27464.63
777.59	26922.32
777.91	26744.56
778.24	26656.63
778.56	26547.41
778.89	26879.18
779.22	26929.97
779.54	27035.65
779.87	26790.43
780.19	26757.39
780.52	26472.86
780.84	26272.44
781.17	26127.99
781.49	25875.13
781.82	25635.38
782.14	25236.71
782.47	25133.22
782.79	24636.79
783.12	24170.40
783.44	23883.96
783.77	23464.26
784.09	23482.56
784.42	23929.01
784.74	23835.90
785.07	23495.12
