SpectraSuite Data File
++++++++++++++++++++++++++++++++++++
Date: Mon Apr 24 13:46:17 ART 2023
User: guille
Dark Spectrum Present: No
Reference Spectrum Present: No
Number of Sampled Component Spectra: 1
Spectrometers: USB2+H13674
Integration Time (usec): 3000 (USB2+H13674)
Spectra Averaged: 10 (USB2+H13674)
Boxcar Smoothing: 0 (USB2+H13674)
Correct for Electrical Dark: No (USB2+H13674)
Strobe/Lamp Enabled: No (USB2+H13674)
Correct for Detector Non-linearity: No (USB2+H13674)
Correct for Stray Light: No (USB2+H13674)
Number of Pixels in Processed Spectrum: 2048
>>>>>Begin Processed Spectral Data<<<<<
339.87	0.00
340.25	0.00
340.63	0.00
341.02	0.00
341.40	0.00
341.78	0.00
342.16	0.00
342.55	0.00
342.93	0.00
343.31	0.00
343.69	0.00
344.08	0.00
344.46	0.00
344.84	0.00
345.22	0.00
345.60	0.00
345.99	0.00
346.37	0.00
346.75	0.00
347.13	0.00
347.51	0.00
347.90	0.00
348.28	0.00
348.66	0.00
349.04	0.00
349.42	0.00
349.80	0.00
350.19	0.00
350.57	0.00
350.95	0.00
351.33	0.00
351.71	0.00
352.09	0.00
352.47	0.00
352.86	0.00
353.24	0.00
353.62	0.00
354.00	0.00
354.38	0.00
354.76	0.00
355.14	0.00
355.52	0.00
355.90	0.00
356.28	0.00
356.67	0.00
357.05	0.00
357.43	0.00
357.81	0.00
358.19	0.00
358.57	0.00
358.95	0.00
359.33	0.00
359.71	0.00
360.09	0.00
360.47	0.00
360.85	0.00
361.23	0.00
361.61	0.00
361.99	0.00
362.37	0.00
362.75	0.00
363.13	0.00
363.51	0.00
363.89	0.00
364.27	0.00
364.65	0.00
365.03	0.00
365.41	0.00
365.79	0.00
366.17	0.00
366.55	0.00
366.93	0.00
367.31	0.00
367.69	0.00
368.07	0.00
368.45	0.00
368.83	0.00
369.21	0.00
369.59	0.00
369.97	0.00
370.35	0.00
370.73	0.00
371.11	0.00
371.49	0.00
371.87	0.00
372.25	0.00
372.62	0.00
373.00	0.00
373.38	0.00
373.76	0.00
374.14	0.00
374.52	0.00
374.90	0.00
375.28	0.00
375.66	0.00
376.03	0.00
376.41	0.00
376.79	0.00
377.17	0.00
377.55	0.00
377.93	0.00
378.31	0.00
378.68	0.00
379.06	0.00
379.44	0.00
379.82	0.00
380.20	0.00
380.58	0.00
380.95	0.00
381.33	0.00
381.71	0.00
382.09	0.00
382.47	0.00
382.85	0.00
383.22	0.00
383.60	0.00
383.98	0.00
384.36	0.00
384.73	0.55
385.11	2.46
385.49	0.00
385.87	0.00
386.25	0.00
386.62	0.00
387.00	0.00
387.38	0.00
387.76	11.47
388.13	17.48
388.51	27.03
388.89	46.15
389.26	97.21
389.64	94.75
390.02	174.76
390.40	208.07
390.77	200.97
391.15	280.16
391.53	289.17
391.90	316.48
392.28	285.62
392.66	268.69
393.04	162.75
393.41	52.97
393.79	61.71
394.17	164.66
394.54	313.20
394.92	441.00
395.30	536.29
395.67	604.29
396.05	581.08
396.42	461.20
396.80	311.02
397.18	257.77
397.55	373.28
397.93	646.07
398.31	881.17
398.68	975.65
399.06	1048.56
399.44	1127.20
399.81	1209.94
400.19	1294.86
400.56	1275.20
400.94	1354.12
401.32	1393.16
401.69	1501.84
402.07	1594.68
402.44	1634.55
402.82	1705.55
403.19	1610.25
403.57	1619.81
403.95	1761.25
404.32	1802.21
404.70	1721.66
405.07	1836.07
405.45	1838.26
405.82	1918.26
406.20	1883.31
406.57	1854.91
406.95	1927.00
407.32	1989.26
407.70	2030.77
408.07	2135.89
408.45	2138.90
408.82	2375.37
409.20	2445.00
409.57	2425.61
409.95	2250.58
410.32	2129.61
410.70	2144.09
411.07	2375.92
411.45	2643.24
411.82	2697.31
412.20	2752.47
412.57	2777.59
412.95	2711.24
413.32	2623.86
413.70	2764.21
414.07	2847.77
414.45	2878.90
414.82	2872.62
415.19	2883.27
415.57	2915.76
415.94	2978.29
416.32	2999.05
416.69	3129.84
417.07	3137.22
417.44	3079.60
417.81	2969.83
418.19	3034.82
418.56	3038.64
418.94	3038.37
419.31	3230.33
419.68	3226.78
420.06	3231.42
420.43	3190.74
420.80	3367.13
421.18	3666.68
421.55	3655.76
421.93	3725.94
422.30	3682.25
422.67	3422.57
423.05	3455.88
423.42	3541.62
423.79	3804.31
424.17	3861.38
424.54	4000.09
424.91	3972.79
425.29	4011.83
425.66	3982.89
426.03	4022.76
426.40	4281.07
426.78	4388.93
427.15	4218.82
427.52	4125.97
427.90	4208.71
428.27	4532.29
428.64	4595.10
429.02	4474.68
429.39	4409.69
429.76	4242.30
430.13	3905.07
430.51	3536.98
430.88	3422.29
431.25	3700.82
431.62	4500.34
432.00	5186.55
432.37	5544.26
432.74	5349.29
433.11	5380.70
433.48	5835.62
433.86	5566.11
434.23	5043.46
434.60	5107.36
434.97	5567.20
435.35	5786.19
435.72	5844.63
436.09	6062.81
436.46	6303.65
436.83	6388.02
437.21	6237.57
437.58	5945.12
437.95	6001.37
438.32	5532.79
438.69	5335.37
439.06	5409.91
439.44	5836.44
439.81	6097.21
440.18	6165.48
440.55	6046.15
440.92	6036.59
441.29	6260.23
441.66	6439.36
442.03	6635.69
442.41	6674.47
442.78	6845.13
443.15	6686.75
443.52	6717.34
443.89	6710.51
444.26	6888.27
444.63	7109.18
445.00	7246.53
445.37	7135.67
445.74	6873.80
446.12	6724.44
446.49	6919.68
446.86	7146.86
447.23	7564.38
447.60	7937.65
447.97	8020.66
448.34	7995.54
448.71	8055.07
449.08	8029.40
449.45	8228.19
449.82	8417.15
450.19	8696.49
450.56	9226.78
450.93	9228.15
451.30	9431.03
451.67	9397.99
452.04	9438.13
452.41	9437.59
452.78	9117.83
453.15	8915.22
453.52	8925.59
453.89	9484.55
454.26	10111.23
454.63	10497.89
455.00	10313.02
455.37	10283.53
455.74	10473.59
456.11	11038.01
456.48	11129.75
456.85	11512.86
457.22	11517.78
457.59	11898.70
457.96	11889.96
458.33	11755.89
458.70	11809.13
459.07	11926.00
459.43	11978.16
459.80	12124.25
460.17	12193.06
460.54	12611.39
460.91	12673.65
461.28	13080.24
461.65	13269.20
462.02	13499.94
462.39	13686.17
462.76	13820.79
463.12	13819.69
463.49	13724.94
463.86	13732.59
464.23	13578.58
464.60	13136.76
464.97	13073.41
465.34	13262.37
465.70	13631.55
466.07	13872.67
466.44	13892.87
466.81	13583.77
467.18	13353.85
467.55	13723.85
467.91	13889.60
468.28	13757.71
468.65	14037.32
469.02	14004.83
469.39	14224.37
469.75	14404.05
470.12	14083.20
470.49	13536.25
470.86	13746.24
471.23	14029.68
471.59	14351.62
471.96	14929.42
472.33	15428.03
472.70	15371.51
473.06	15166.44
473.43	14697.32
473.80	15277.57
474.17	15491.93
474.53	15987.54
474.90	16134.99
475.27	16405.59
475.64	16265.51
476.00	16128.71
476.37	16104.41
476.74	16377.74
477.11	16405.87
477.47	16758.12
477.84	17215.23
478.21	17483.65
478.57	17369.23
478.94	17207.58
479.31	17431.76
479.67	18009.29
480.04	18430.08
480.41	17960.96
480.77	18488.52
481.14	18519.10
481.51	18989.31
481.87	19151.78
482.24	19615.44
482.61	19688.90
482.97	19743.24
483.34	19917.18
483.71	19739.96
484.07	19895.61
484.44	19891.24
484.80	19999.37
485.17	19918.27
485.54	19481.10
485.90	18223.65
486.27	16410.51
486.63	16273.16
487.00	17380.16
487.37	18753.11
487.73	19494.20
488.10	20616.49
488.46	20902.12
488.83	21044.11
489.19	20909.21
489.56	21383.25
489.93	22404.23
490.29	22766.86
490.66	22629.51
491.02	22289.00
491.39	22446.83
491.75	22069.46
492.12	21353.76
492.48	20921.78
492.85	21806.50
493.21	22834.31
493.58	22774.50
493.94	22090.48
494.31	22659.82
494.67	23438.87
495.04	23671.79
495.40	23553.83
495.77	22911.31
496.13	22988.04
496.50	23163.07
496.86	23562.84
497.23	23727.22
497.59	23512.32
497.96	23513.96
498.32	22573.53
498.69	22081.75
499.05	22612.03
499.41	23304.79
499.78	23386.16
500.14	23036.64
500.51	22366.82
500.87	21979.07
501.24	21664.78
501.60	21608.80
501.96	21509.68
502.33	21696.73
502.69	21945.76
503.06	22455.84
503.42	22957.46
503.78	22717.71
504.15	22021.13
504.51	21936.48
504.88	22462.39
505.24	22575.44
505.60	22604.93
505.97	23261.38
506.33	23571.57
506.69	23458.80
507.06	23180.82
507.42	22873.35
507.78	22582.00
508.15	22157.38
508.51	22264.97
508.87	22570.25
509.24	23518.05
509.60	23309.71
509.96	22802.90
510.33	22984.22
510.69	22788.70
511.05	22726.17
511.41	23273.94
511.78	23623.46
512.14	23888.60
512.50	23405.28
512.87	22933.97
513.23	22721.26
513.59	23086.07
513.95	22733.00
514.32	22587.18
514.68	22511.00
515.04	22895.47
515.40	23208.13
515.77	23362.41
516.13	23561.20
516.49	22949.26
516.85	20994.68
517.22	19345.66
517.58	19997.46
517.94	21579.58
518.30	21817.97
518.66	21148.42
519.03	21653.31
519.39	23244.17
519.75	23776.10
520.11	24296.83
520.47	24739.74
520.83	24406.60
521.20	24495.07
521.56	25070.69
521.92	25459.53
522.28	25353.85
522.64	25126.12
523.00	24540.13
523.37	24410.97
523.73	25866.12
524.09	26430.81
524.45	27040.01
524.81	27157.43
525.17	26956.18
525.53	27030.46
525.89	27308.16
526.26	26531.84
526.62	25433.31
526.98	24352.81
527.34	24615.77
527.70	26139.18
528.06	27239.08
528.42	27521.97
528.78	28119.70
529.14	29225.88
529.50	29602.98
529.86	28877.18
530.22	28541.86
530.59	29220.15
530.95	30114.15
531.31	30271.44
531.67	30033.33
532.03	29686.26
532.39	28855.33
532.75	27720.76
533.11	27327.55
533.47	28006.93
533.83	28988.86
534.19	29079.52
534.55	28656.00
534.91	29069.96
535.27	29448.70
535.63	30085.21
535.99	30924.87
536.35	31084.34
536.71	30395.95
537.07	29162.26
537.43	29733.23
537.79	30038.79
538.15	30486.06
538.51	30536.85
538.87	30721.44
539.22	30281.54
539.58	29824.16
539.94	29718.21
540.30	29430.95
540.66	29251.00
541.02	28926.06
541.38	29246.09
541.74	29836.17
542.10	29895.16
542.46	30233.21
542.82	30058.99
543.18	29731.86
543.53	29817.33
543.89	30173.95
544.25	30944.53
544.61	30850.87
544.97	31007.07
545.33	30536.31
545.69	31087.62
546.05	30460.67
546.40	30633.52
546.76	30883.64
547.12	30755.85
547.48	30439.92
547.84	29986.63
548.20	29749.07
548.55	30092.58
548.91	30557.33
549.27	30898.39
549.63	30654.54
549.99	30509.00
550.34	30167.67
550.70	29836.99
551.06	29840.00
551.42	29744.15
551.78	29749.89
552.13	30068.55
552.49	29663.05
552.85	29916.45
553.21	29847.37
553.57	29494.30
553.92	29973.25
554.28	29815.97
554.64	30037.15
555.00	30192.52
555.35	30055.44
555.71	29708.93
556.07	29474.64
556.42	29309.44
556.78	28720.99
557.14	28533.12
557.50	28266.06
557.85	28768.23
558.21	28965.65
558.57	28597.02
558.92	28138.54
559.28	27637.75
559.64	27782.47
559.99	28010.75
560.35	28260.33
560.71	29128.94
561.06	29535.26
561.42	29117.75
561.78	28890.29
562.13	28127.62
562.49	27986.72
562.85	28279.99
563.20	28475.50
563.56	28506.09
563.92	28268.25
564.27	28508.00
564.63	28461.85
564.98	28576.81
565.34	28774.51
565.70	28148.65
566.05	27034.01
566.41	27215.32
566.76	27812.51
567.12	28374.47
567.48	28620.77
567.83	28576.54
568.19	27745.33
568.54	27322.09
568.90	26790.43
569.25	27095.17
569.61	27181.46
569.97	27155.79
570.32	26997.69
570.68	26324.32
571.03	25944.49
571.39	25752.80
571.74	26469.86
572.10	27008.61
572.45	27405.64
572.81	27308.16
573.16	27187.47
573.52	26767.50
573.87	26810.91
574.23	26695.68
574.58	26850.78
574.94	26880.00
575.29	26596.29
575.65	25998.28
576.00	25668.42
576.36	25830.07
576.71	25796.76
577.07	25867.21
577.42	25733.96
577.78	25581.04
578.13	25476.46
578.48	25016.07
578.84	24857.15
579.19	24336.70
579.55	24490.70
579.90	24630.24
580.26	24954.09
580.61	24791.62
580.96	24638.16
581.32	24648.26
581.67	24660.82
582.03	24556.78
582.38	24343.52
582.73	24244.67
583.09	23964.51
583.44	24092.85
583.79	23926.01
584.15	24026.77
584.50	24146.37
584.86	23776.10
585.21	23537.99
585.56	22917.04
585.92	22511.55
586.27	22408.05
586.62	22899.02
586.98	22940.80
587.33	22955.00
587.68	22815.74
588.04	22980.39
588.39	22554.14
588.74	21679.80
589.09	20830.85
589.45	19753.89
589.80	20123.34
590.15	20760.40
590.51	21508.59
590.86	22053.35
591.21	21850.19
591.56	21863.57
591.92	21484.28
592.27	21751.07
592.62	21979.89
592.97	21971.15
593.33	22171.58
593.68	22363.00
594.03	22277.80
594.38	22540.49
594.74	22102.77
595.09	21739.05
595.44	21696.73
595.79	21814.14
596.14	21905.89
596.50	21916.00
596.85	22039.97
597.20	22076.83
597.55	21891.42
597.90	21934.84
598.26	21803.49
598.61	21959.69
598.96	21902.62
599.31	22240.39
599.66	22207.90
600.01	22258.14
600.37	22205.17
600.72	21840.90
601.07	22064.27
601.42	22301.01
601.77	22508.27
602.12	22255.14
602.47	22100.59
602.83	22177.04
603.18	22336.24
603.53	22618.59
603.88	22738.19
604.23	22812.73
604.58	23090.98
604.93	23294.96
605.28	23319.81
605.63	23210.59
605.98	23157.61
606.33	23084.16
606.69	23203.21
607.04	23456.89
607.39	23393.54
607.74	23703.74
608.09	23617.18
608.44	23464.53
608.79	23395.45
609.14	23767.63
609.49	23554.92
609.84	23512.59
610.19	23589.87
610.54	23251.54
610.89	23314.08
611.24	23675.88
611.59	23897.88
611.94	23773.09
612.29	23723.40
612.64	24063.09
612.99	23961.51
613.34	23809.41
613.69	23473.54
614.04	23255.91
614.39	23350.67
614.74	23598.61
615.09	23872.76
615.44	23666.60
615.79	23460.16
616.14	22834.58
616.48	22586.64
616.83	22396.04
617.18	22505.81
617.53	22906.39
617.88	23395.45
618.23	23699.64
618.58	23828.25
618.93	23853.10
619.28	23671.79
619.63	24065.82
619.98	24263.51
620.32	24274.98
620.67	24444.01
621.02	24377.65
621.37	24240.85
621.72	23963.69
622.07	23929.83
622.42	23720.39
622.76	23963.42
623.11	24100.50
623.46	24213.00
623.81	24200.98
624.16	24059.26
624.51	23743.88
624.85	23465.08
625.20	23373.06
625.55	23368.96
625.90	23210.86
626.25	23350.12
626.59	23571.30
626.94	23676.98
627.29	23502.76
627.64	23229.15
627.99	23015.35
628.33	22789.52
628.68	22959.37
629.03	23243.90
629.38	23144.78
629.72	22785.70
630.07	22364.09
630.42	22404.51
630.77	22424.44
631.11	22631.42
631.46	22094.03
631.81	21900.98
632.16	21935.93
632.50	22031.23
632.85	22278.08
633.20	22107.69
633.54	21953.13
633.89	22041.60
634.24	22049.80
634.58	22479.60
634.93	22516.19
635.28	22548.68
635.63	22408.05
635.97	22049.52
636.32	21890.33
636.67	22060.45
637.01	22283.54
637.36	22590.73
637.70	22796.90
638.05	22571.89
638.40	22408.33
638.74	22553.32
639.09	22417.61
639.44	22249.41
639.78	22072.19
640.13	22047.89
640.47	22229.75
640.82	22125.71
641.17	21932.38
641.51	21913.27
641.86	22155.75
642.20	21945.49
642.55	22000.65
642.90	22029.04
643.24	21766.08
643.59	21531.80
643.93	21450.70
644.28	21433.77
644.62	21573.30
644.97	21657.95
645.31	21360.59
645.66	21270.48
646.00	20741.55
646.35	20576.08
646.70	20470.68
647.04	20612.94
647.39	20576.90
647.73	20652.54
648.08	20758.21
648.42	20886.82
648.77	20502.90
649.11	20352.99
649.46	20050.16
649.80	19953.22
650.14	20345.61
650.49	20609.67
650.83	20933.52
651.18	21231.97
651.52	20994.14
651.87	21160.98
652.21	21098.72
652.56	20787.16
652.90	20702.23
653.25	20695.95
653.59	20733.91
653.93	20949.63
654.28	20843.68
654.62	20831.94
654.97	20635.06
655.31	20306.02
655.65	19477.28
656.00	18078.92
656.34	17134.40
656.69	17015.62
657.03	18040.15
657.37	19004.60
657.72	19638.38
658.06	20448.56
658.40	21215.86
658.75	21404.00
659.09	21714.75
659.43	21622.73
659.78	21465.99
660.12	21602.79
660.46	21927.74
660.81	21779.74
661.15	21752.98
661.49	22311.12
661.84	22433.18
662.18	22699.69
662.52	22772.59
662.87	22979.30
663.21	22785.43
663.55	22813.55
663.89	22839.49
664.24	22629.51
664.58	22698.32
664.92	22516.73
665.26	22694.22
665.61	22898.20
665.95	23149.69
666.29	23371.42
666.63	23420.84
666.98	23701.01
667.32	23963.96
667.66	24112.24
668.00	24500.26
668.35	24620.95
668.69	24834.76
669.03	24747.38
669.37	24996.41
669.71	25118.75
670.06	25022.08
670.40	25288.86
670.74	25361.77
671.08	25305.52
671.42	25334.19
671.77	25152.61
672.11	25182.10
672.45	25315.62
672.79	25506.50
673.13	25759.35
673.47	26173.04
673.81	26487.06
674.16	26780.88
674.50	27017.08
674.84	27215.05
675.18	27800.77
675.52	28053.90
675.86	28109.87
676.20	27925.01
676.54	27896.06
676.88	27806.23
677.23	27678.43
677.57	27743.70
677.91	27779.19
678.25	28080.11
678.59	28582.54
678.93	28956.09
679.27	29035.55
679.61	28928.79
679.95	29099.72
680.29	29495.39
680.63	29582.23
680.97	29442.42
681.31	29553.83
681.65	29628.10
681.99	29697.73
682.33	29784.02
682.67	30286.73
683.01	30701.24
683.35	30744.93
683.69	30897.02
684.03	30515.83
684.37	30347.07
684.71	30574.26
685.05	31239.72
685.39	31916.36
685.73	31921.01
686.07	32031.05
686.41	30650.17
686.75	27824.52
687.09	24586.27
687.43	23224.51
687.77	24153.20
688.11	25792.66
688.45	26979.12
688.79	27715.30
689.13	27831.62
689.47	28105.78
689.80	28606.85
690.14	28857.52
690.48	29245.27
690.82	29922.46
691.16	30158.66
691.50	30859.34
691.84	31604.80
692.18	32153.93
692.52	32544.13
692.85	32581.82
693.19	32622.78
693.53	32449.11
693.87	32273.80
694.21	32264.25
694.55	32518.19
694.88	32889.56
695.22	32982.13
695.56	32860.07
695.90	33358.13
696.24	33626.01
696.58	34441.37
696.91	35303.98
697.25	35495.67
697.59	35280.77
697.93	35007.16
698.27	35054.94
698.60	34818.75
698.94	34371.74
699.28	34038.88
699.62	33578.50
699.95	33588.87
700.29	33903.71
700.63	34248.86
700.97	34338.97
701.30	34737.10
701.64	34704.88
701.98	34887.83
702.32	34576.54
702.65	34468.13
702.99	34572.72
703.33	34637.43
703.66	35004.15
704.00	35335.38
704.34	35775.56
704.68	36530.30
705.01	36839.41
705.35	36286.46
705.69	36004.93
706.02	35870.58
706.36	35548.37
706.70	35679.71
707.03	35620.18
707.37	36169.31
707.71	36150.20
708.04	36094.49
708.38	35969.43
708.72	35668.52
709.05	35909.63
709.39	36205.90
709.72	36117.98
710.06	36232.12
710.40	36121.53
710.73	35773.92
711.07	35708.93
711.40	35669.34
711.74	35705.65
712.08	35575.95
712.41	35258.10
712.75	34787.34
713.08	34390.58
713.42	34051.44
713.75	34502.27
714.09	34730.82
714.43	34717.71
714.76	34443.28
715.10	34218.01
715.43	34903.12
715.77	34986.13
716.10	34326.41
716.44	33381.07
716.77	32072.28
717.11	31010.34
717.44	30389.94
717.78	29598.06
718.11	29081.16
718.45	28760.85
718.78	28089.94
719.12	27726.77
719.45	28162.85
719.79	28146.46
720.12	28160.39
720.46	27804.59
720.79	28615.86
721.12	29678.34
721.46	31307.43
721.79	31681.53
722.13	31812.33
722.46	31569.30
722.80	31379.52
723.13	30592.83
723.46	29773.37
723.80	29007.16
724.13	29241.44
724.47	29671.52
724.80	29889.69
725.13	29855.29
725.47	30013.66
725.80	30234.03
726.14	30140.91
726.47	29962.88
726.80	30250.41
727.14	29852.83
727.47	29523.79
727.80	29018.90
728.14	29166.90
728.47	29900.07
728.80	29451.70
729.14	29457.98
729.47	29708.11
729.80	30537.94
730.14	30827.94
730.47	30712.43
730.80	30486.88
731.14	30549.96
731.47	31125.85
731.80	31180.19
732.14	31655.32
732.47	32214.00
732.80	32358.45
733.13	32732.27
733.47	33037.56
733.80	33534.53
734.13	33938.12
734.46	34053.90
734.80	33983.45
735.13	33789.30
735.46	33536.99
735.79	33152.52
736.13	33347.76
736.46	32667.83
736.79	32597.11
737.12	32879.73
737.45	32689.13
737.79	32386.03
738.12	32249.77
738.45	31876.22
738.78	31542.00
739.11	31696.00
739.45	31911.18
739.78	32388.76
740.11	32688.04
740.44	32529.94
740.77	32453.75
741.10	32393.95
741.44	32294.56
741.77	32620.59
742.10	32728.18
742.43	33374.24
742.76	33652.22
743.09	34390.31
743.42	34572.17
743.75	34852.06
744.08	34358.64
744.42	33835.17
744.75	33699.74
745.08	34012.39
745.41	34545.96
745.74	34693.14
746.07	34352.08
746.40	33855.93
746.73	33543.27
747.06	33579.86
747.39	33173.27
747.72	33212.32
748.05	32857.34
748.38	32932.43
748.71	32702.24
749.04	32257.42
749.37	31982.72
749.71	31995.55
750.04	31841.00
750.37	32193.52
750.70	32352.44
751.03	32277.63
751.36	32801.91
751.69	32926.42
752.02	33268.02
752.34	33138.32
752.67	32756.30
753.00	32562.16
753.33	32749.48
753.66	32958.92
753.99	32936.25
754.32	32886.56
754.65	33204.95
754.98	33386.81
755.31	33281.95
755.64	33298.33
755.97	33173.82
756.30	32740.19
756.63	32352.44
756.96	31959.51
757.29	31881.41
757.61	32103.96
757.94	32091.67
758.27	31783.93
758.60	31678.25
758.93	30959.83
759.26	27641.30
759.59	22011.57
759.92	15128.75
760.24	9608.52
760.57	6424.07
760.90	5391.07
761.23	6443.73
761.56	9687.44
761.89	13266.20
762.22	14755.21
762.54	14318.58
762.87	12863.43
763.20	12115.51
763.53	12047.79
763.86	12462.85
764.18	13254.73
764.51	14467.67
764.84	15909.44
765.17	16995.14
765.50	18294.64
765.82	19371.60
766.15	20519.01
766.48	21658.77
766.81	23073.51
767.13	24359.09
767.46	25199.03
767.79	25825.98
768.12	26091.12
768.44	26938.16
768.77	26927.79
769.10	27214.23
769.42	27197.84
769.75	27339.29
770.08	27450.97
770.41	27945.49
770.73	28157.66
771.06	27829.44
771.39	27656.32
771.71	27419.02
772.04	27352.40
772.37	27216.41
772.69	26888.74
773.02	26825.93
773.35	26904.85
773.67	27194.84
774.00	27153.34
774.33	27216.69
774.65	26623.87
774.98	26501.53
775.30	26201.44
775.63	26089.21
775.96	25773.82
776.28	25663.78
776.61	25209.68
776.93	24987.13
777.26	24380.66
777.59	23815.42
777.91	23763.54
778.24	23984.44
778.56	24134.90
778.89	24533.03
779.22	24405.78
779.54	24147.46
779.87	23473.27
780.19	23688.44
780.52	23778.28
780.84	23657.59
781.17	23516.14
781.49	23379.61
781.82	23341.11
782.14	23149.15
782.47	23218.23
782.79	22888.92
783.12	22833.76
783.44	22628.96
783.77	22685.76
784.09	22456.66
784.42	22458.03
784.74	22454.20
785.07	22579.81
785.39	22409.69
