SpectraSuite Data File
++++++++++++++++++++++++++++++++++++
Date: Mon Apr 24 13:47:08 ART 2023
User: guille
Dark Spectrum Present: No
Reference Spectrum Present: No
Number of Sampled Component Spectra: 1
Spectrometers: USB2+H13674
Integration Time (usec): 3000 (USB2+H13674)
Spectra Averaged: 10 (USB2+H13674)
Boxcar Smoothing: 0 (USB2+H13674)
Correct for Electrical Dark: No (USB2+H13674)
Strobe/Lamp Enabled: No (USB2+H13674)
Correct for Detector Non-linearity: No (USB2+H13674)
Correct for Stray Light: No (USB2+H13674)
Number of Pixels in Processed Spectrum: 2048
>>>>>Begin Processed Spectral Data<<<<<
339.87	0.00
340.25	0.00
340.63	0.00
341.02	0.00
341.40	0.00
341.78	0.00
342.16	0.00
342.55	0.00
342.93	0.00
343.31	0.00
343.69	0.00
344.08	0.00
344.46	0.00
344.84	0.00
345.22	0.00
345.60	0.00
345.99	0.00
346.37	0.00
346.75	0.00
347.13	0.00
347.51	0.00
347.90	0.00
348.28	0.00
348.66	0.00
349.04	0.00
349.42	0.00
349.80	0.00
350.19	0.00
350.57	0.00
350.95	0.00
351.33	0.00
351.71	0.00
352.09	0.00
352.47	0.00
352.86	0.00
353.24	0.00
353.62	0.00
354.00	0.00
354.38	0.00
354.76	0.00
355.14	0.00
355.52	0.00
355.90	0.00
356.28	0.00
356.67	0.00
357.05	0.00
357.43	0.00
357.81	0.00
358.19	0.00
358.57	0.00
358.95	0.00
359.33	0.00
359.71	0.00
360.09	0.00
360.47	0.00
360.85	0.00
361.23	0.00
361.61	0.00
361.99	0.00
362.37	0.00
362.75	0.00
363.13	0.00
363.51	0.00
363.89	0.00
364.27	0.00
364.65	0.00
365.03	0.00
365.41	0.00
365.79	0.00
366.17	0.00
366.55	0.00
366.93	0.00
367.31	0.00
367.69	0.00
368.07	0.00
368.45	0.00
368.83	0.00
369.21	0.00
369.59	0.00
369.97	0.00
370.35	0.00
370.73	0.00
371.11	0.00
371.49	0.00
371.87	0.00
372.25	0.00
372.62	0.00
373.00	0.00
373.38	0.00
373.76	0.00
374.14	0.00
374.52	0.00
374.90	0.00
375.28	0.00
375.66	0.00
376.03	0.00
376.41	0.00
376.79	0.00
377.17	0.00
377.55	0.00
377.93	0.00
378.31	0.00
378.68	0.00
379.06	0.00
379.44	0.00
379.82	0.00
380.20	0.00
380.58	0.00
380.95	0.00
381.33	0.00
381.71	0.00
382.09	0.00
382.47	0.00
382.85	0.00
383.22	0.00
383.60	0.00
383.98	0.00
384.36	0.00
384.73	0.00
385.11	0.00
385.49	0.00
385.87	0.00
386.25	5.46
386.62	5.73
387.00	1.64
387.38	4.92
387.76	11.20
388.13	10.38
388.51	12.29
388.89	37.68
389.26	66.35
389.64	121.79
390.02	152.92
390.40	185.14
390.77	175.31
391.15	262.41
391.53	310.20
391.90	318.39
392.28	291.90
392.66	228.83
393.04	136.80
393.41	30.58
393.79	58.16
394.17	165.20
394.54	321.12
394.92	466.39
395.30	554.32
395.67	600.46
396.05	582.99
396.42	490.15
396.80	277.43
397.18	229.10
397.55	380.92
397.93	668.46
398.31	841.03
398.68	1014.70
399.06	1074.77
399.44	1187.28
399.81	1247.08
400.19	1273.29
400.56	1339.10
400.94	1398.90
401.32	1428.12
401.69	1523.69
402.07	1596.32
402.44	1665.41
402.82	1650.12
403.19	1645.75
403.57	1675.24
403.95	1743.50
404.32	1845.90
404.70	1743.50
405.07	1792.66
405.45	1872.39
405.82	1924.00
406.20	1875.39
406.57	1900.51
406.95	1909.25
407.32	1969.05
407.70	2023.67
408.07	2162.38
408.45	2166.48
408.82	2374.55
409.20	2442.54
409.57	2402.40
409.95	2226.82
410.32	2142.72
410.70	2197.06
411.07	2399.13
411.45	2696.49
411.82	2750.01
412.20	2778.14
412.57	2746.19
412.95	2723.53
413.32	2682.57
413.70	2773.77
414.07	2875.35
414.45	2865.52
414.82	2905.66
415.19	2864.97
415.57	2889.82
415.94	3009.97
416.32	3048.47
416.69	3220.23
417.07	3178.72
417.44	3103.90
417.81	3024.99
418.19	3000.68
418.56	3042.46
418.94	3049.29
419.31	3254.63
419.68	3230.06
420.06	3254.09
420.43	3250.26
420.80	3479.36
421.18	3702.45
421.55	3681.97
421.93	3741.78
422.30	3665.86
422.67	3430.21
423.05	3464.07
423.42	3584.49
423.79	3820.96
424.17	3929.92
424.54	4111.50
424.91	4027.67
425.29	4032.31
425.66	4088.84
426.03	4068.63
426.40	4353.44
426.78	4384.02
427.15	4241.75
427.52	4177.04
427.90	4214.99
428.27	4595.91
428.64	4529.29
429.02	4477.68
429.39	4367.91
429.76	4191.51
430.13	3968.96
430.51	3618.08
430.88	3517.32
431.25	3839.80
431.62	4639.33
432.00	5366.77
432.37	5649.94
432.74	5477.91
433.11	5513.13
433.48	5880.95
433.86	5666.87
434.23	5162.52
434.60	5244.98
434.97	5613.35
435.35	5945.39
435.72	5942.39
436.09	6209.44
436.46	6434.44
436.83	6487.96
437.21	6363.45
437.58	6105.13
437.95	6116.60
438.32	5692.81
438.69	5540.44
439.06	5630.82
439.44	5976.25
439.81	6265.15
440.18	6357.17
440.55	6158.11
440.92	6203.43
441.29	6482.78
441.66	6671.46
442.03	6744.64
442.41	6749.01
442.78	6967.46
443.15	6946.71
443.52	6978.39
443.89	6997.50
444.26	7102.36
444.63	7252.27
445.00	7443.96
445.37	7269.74
445.74	7061.67
446.12	6890.73
446.49	6988.22
446.86	7359.03
447.23	7700.64
447.60	8148.73
447.97	8284.99
448.34	8076.10
448.71	8136.72
449.08	8218.91
449.45	8416.88
449.82	8572.80
450.19	8934.88
450.56	9440.59
450.93	9572.48
451.30	9667.23
451.67	9661.77
452.04	9609.62
452.41	9770.18
452.78	9499.30
453.15	9328.63
453.52	9266.65
453.89	9651.67
454.26	10204.89
454.63	10485.05
455.00	10393.58
455.37	10449.56
455.74	10733.54
456.11	11387.80
456.48	11506.31
456.85	11794.66
457.22	11771.18
457.59	12286.99
457.96	12195.52
458.33	12123.43
458.70	12133.53
459.07	12410.42
459.43	12380.65
459.80	12490.15
460.17	12456.29
460.54	13163.25
460.91	13152.06
461.28	13431.13
461.65	13582.67
462.02	13707.46
462.39	13805.22
462.76	14030.77
463.12	14207.71
463.49	14089.21
463.86	13958.68
464.23	13958.41
464.60	13634.28
464.97	13532.70
465.34	13696.54
465.70	14123.61
466.07	14214.27
466.44	14085.93
466.81	13799.76
467.18	13441.50
467.55	13875.94
467.91	14102.04
468.28	14074.73
468.65	14255.23
469.02	14502.90
469.39	14700.59
469.75	14663.18
470.12	14360.90
470.49	13843.72
470.86	14066.27
471.23	14207.71
471.59	14668.37
471.96	15135.85
472.33	15725.67
472.70	15955.31
473.06	15765.54
473.43	15252.73
473.80	15614.26
474.17	15938.93
474.53	16477.41
474.90	16559.60
475.27	16908.85
475.64	16626.23
476.00	16534.48
476.37	16457.75
476.74	16504.99
477.11	16695.86
477.47	17351.76
477.84	18070.18
478.21	18487.42
478.57	18189.24
478.94	18035.78
479.31	18157.02
479.67	19042.01
480.04	19378.15
480.41	18975.93
480.77	19321.36
481.14	19204.21
481.51	19568.75
481.87	19867.21
482.24	20146.55
482.61	19846.73
482.97	19826.80
483.34	20079.38
483.71	19903.25
484.07	19895.06
484.44	20117.61
484.80	20401.86
485.17	20331.14
485.54	20064.36
485.90	18443.46
486.27	16764.13
486.63	16973.84
487.00	18139.54
487.37	19676.88
487.73	20273.80
488.10	21318.54
488.46	21677.61
488.83	21436.23
489.19	21188.28
489.56	21771.55
489.93	23003.60
490.29	23379.61
490.66	23043.20
491.02	22769.32
491.39	23116.11
491.75	22730.81
492.12	22231.11
492.48	21809.50
492.85	23103.27
493.21	24218.73
493.58	24076.74
493.94	23084.43
494.31	23448.42
494.67	23896.79
495.04	24320.31
495.40	24395.68
495.77	23605.98
496.13	23882.87
496.50	24146.10
496.86	24480.60
497.23	24439.64
497.59	24313.76
497.96	24361.82
498.32	23194.47
498.69	22918.68
499.05	23121.84
499.41	23934.20
499.78	23843.00
500.14	23582.77
500.51	22863.80
500.87	22675.11
501.24	22487.24
501.60	22387.58
501.96	22032.59
502.33	22575.44
502.69	22849.05
503.06	23387.26
503.42	23600.25
503.78	23277.21
504.15	22693.41
504.51	22510.18
504.88	23163.35
505.24	23643.66
505.60	23827.71
505.97	24656.45
506.33	24671.74
506.69	24201.80
507.06	23884.78
507.42	23630.56
507.78	23353.94
508.15	22981.21
508.51	22997.87
508.87	23273.39
509.24	23975.71
509.60	23869.21
509.96	23397.63
510.33	23379.88
510.69	23405.28
511.05	23430.95
511.41	24230.47
511.78	24617.40
512.14	24395.68
512.50	24007.93
512.87	23636.02
513.23	23324.73
513.59	23614.99
513.95	23361.04
514.32	23243.08
514.68	23411.01
515.04	23756.16
515.40	24030.32
515.77	24194.70
516.13	24346.25
516.49	23411.56
516.85	21311.71
517.22	19846.18
517.58	20835.21
517.94	22254.05
518.30	22443.55
518.66	21811.14
519.03	22283.27
519.39	23466.45
519.75	24007.66
520.11	24648.81
520.47	25150.15
520.83	25085.43
521.20	25206.40
521.56	25642.21
521.92	26108.60
522.28	26060.27
522.64	26002.10
523.00	25504.86
523.37	25735.32
523.73	26732.55
524.09	27576.04
524.45	28215.82
524.81	28492.98
525.17	27889.78
525.53	27986.18
525.89	28319.86
526.26	27717.48
526.62	26798.08
526.98	25402.19
527.34	25926.74
527.70	27139.68
528.06	28283.27
528.42	28876.09
528.78	29658.68
529.14	30839.13
529.50	31139.23
529.86	30569.89
530.22	30373.29
530.59	30916.14
530.95	31992.82
531.31	32047.43
531.67	31944.76
532.03	31536.81
532.39	30686.49
532.75	29600.52
533.11	29239.81
533.47	29967.52
533.83	31002.70
534.19	31544.18
534.55	31261.56
534.91	31588.69
535.27	32078.02
535.63	32665.37
535.99	32925.06
536.35	32543.59
536.71	31633.74
537.07	30538.22
537.43	30676.66
537.79	31299.52
538.15	31818.06
538.51	31893.43
538.87	31767.27
539.22	31554.01
539.58	31075.06
539.94	30453.84
540.30	30055.17
540.66	29489.93
541.02	29330.74
541.38	29943.76
541.74	30492.89
542.10	30978.94
542.46	31353.04
542.82	31213.77
543.18	31174.45
543.53	31293.51
543.89	31813.15
544.25	32510.55
544.61	32145.74
544.97	31963.06
545.33	31638.93
545.69	32007.57
546.05	31637.84
546.40	31835.81
546.76	31876.22
547.12	32082.93
547.48	31966.88
547.84	31699.83
548.20	31374.88
548.55	31702.01
548.91	32198.16
549.27	32452.11
549.63	32331.69
549.99	32269.71
550.34	31847.28
550.70	31904.35
551.06	31924.56
551.42	31790.21
551.78	31948.86
552.13	31804.95
552.49	31712.66
552.85	31463.35
553.21	31342.39
553.57	31021.81
553.92	31567.94
554.28	31363.14
554.64	31192.20
555.00	31431.95
555.35	31126.12
555.71	30854.70
556.07	30783.15
556.42	30521.29
556.78	30192.52
557.14	30000.01
557.50	29620.18
557.85	29686.81
558.21	30009.84
558.57	29330.74
558.92	28748.02
559.28	28466.77
559.64	28992.68
559.99	29340.57
560.35	29479.01
560.71	30117.16
561.06	31045.02
561.42	30559.79
561.78	30020.49
562.13	29789.21
562.49	30193.07
562.85	30313.76
563.20	30394.86
563.56	30391.86
563.92	30083.30
564.27	29938.57
564.63	29734.59
564.98	29827.44
565.34	29666.88
565.70	28822.02
566.05	27961.60
566.41	27719.67
566.76	28358.91
567.12	28615.86
567.48	28917.86
567.83	28944.62
568.19	28288.18
568.54	27744.24
568.90	27419.84
569.25	27754.07
569.61	27925.83
569.97	28073.01
570.32	28035.60
570.68	27457.25
571.03	26807.64
571.39	26747.84
571.74	27359.50
572.10	28081.47
572.45	28635.52
572.81	28667.74
573.16	28519.74
573.52	28232.75
573.87	27948.22
574.23	27948.49
574.58	27743.70
574.94	27575.76
575.29	27316.35
575.65	27215.32
576.00	27168.35
576.36	27399.91
576.71	27369.87
577.07	27443.33
577.42	27433.22
577.78	27016.53
578.13	26448.56
578.48	26058.08
578.84	25839.09
579.19	25629.92
579.55	25745.42
579.90	25828.98
580.26	25996.92
580.61	25801.95
580.96	25513.05
581.32	25617.09
581.67	25631.28
582.03	25389.90
582.38	25237.80
582.73	25417.20
583.09	25140.86
583.44	25231.79
583.79	25137.04
584.15	25072.87
584.50	25343.20
584.86	25116.83
585.21	24831.21
585.56	24203.99
585.92	23821.97
586.27	23633.56
586.62	23908.81
586.98	24071.55
587.33	24320.58
587.68	23983.08
588.04	23924.10
588.39	23690.63
588.74	22720.71
589.09	21704.92
589.45	20732.54
589.80	20861.43
590.15	21402.37
590.51	22466.49
590.86	22804.81
591.21	22716.07
591.56	22678.66
591.92	22574.62
592.27	23109.83
592.62	23762.44
592.97	23472.45
593.33	23360.22
593.68	23456.07
594.03	23509.86
594.38	23474.91
594.74	22920.59
595.09	22761.67
595.44	22842.50
595.79	23076.51
596.14	23494.30
596.50	23201.03
596.85	23322.81
597.20	23205.67
597.55	22917.59
597.90	22690.95
598.26	22483.69
598.61	22693.68
598.96	22633.06
599.31	23020.53
599.66	23041.29
600.01	23251.82
600.37	23156.52
600.72	23106.00
601.07	23081.70
601.42	23194.47
601.77	23200.21
602.12	23146.14
602.47	23222.60
602.83	23318.45
603.18	23631.92
603.53	23842.45
603.88	24064.18
604.23	24084.66
604.58	24057.35
604.93	24101.59
605.28	24007.38
605.63	24071.55
605.98	24309.66
606.33	24234.57
606.69	24246.58
607.04	24501.90
607.39	24758.30
607.74	24695.23
608.09	24336.70
608.44	24262.70
608.79	24273.07
609.14	24686.76
609.49	24520.19
609.84	24428.72
610.19	24468.31
610.54	24312.94
610.89	24443.46
611.24	24719.53
611.59	24806.09
611.94	24608.67
612.29	24520.19
612.64	24653.99
612.99	24798.72
613.34	24824.11
613.69	24620.68
614.04	24655.36
614.39	25062.77
614.74	25509.50
615.09	25936.84
615.44	26143.55
615.79	25791.03
616.14	25016.62
616.48	24656.45
616.83	24438.55
617.18	24516.64
617.53	24811.55
617.88	25073.69
618.23	25412.02
618.58	25346.48
618.93	25178.82
619.28	25267.57
619.63	25286.95
619.98	25879.50
620.32	26095.22
620.67	26517.65
621.02	26538.13
621.37	26242.67
621.72	25785.84
622.07	25600.97
622.42	25373.79
622.76	25588.41
623.11	25412.56
623.46	25134.04
623.81	25108.64
624.16	25073.42
624.51	24814.28
624.85	24458.75
625.20	24245.77
625.55	23924.92
625.90	23579.49
626.25	23891.88
626.59	24120.98
626.94	24436.36
627.29	24166.03
627.64	23781.83
627.99	23662.23
628.33	23574.85
628.68	23869.76
629.03	24218.73
629.38	24302.84
629.72	24145.82
630.07	23846.00
630.42	23849.55
630.77	24248.77
631.11	24528.93
631.46	23963.15
631.81	23581.95
632.16	23878.22
632.50	23867.30
632.85	24226.92
633.20	23962.33
633.54	23655.13
633.89	23539.35
634.24	23352.03
634.58	23572.39
634.93	23412.38
635.28	23499.76
635.63	23412.11
635.97	23150.78
636.32	22998.96
636.67	22881.00
637.01	22795.53
637.36	23095.08
637.70	23152.42
638.05	23198.02
638.40	23078.42
638.74	23375.79
639.09	23232.70
639.44	23030.36
639.78	22904.76
640.13	22672.11
640.47	22455.02
640.82	22359.45
641.17	21950.13
641.51	21878.59
641.86	22024.40
642.20	22157.38
642.55	22399.04
642.90	22324.50
643.24	22207.90
643.59	22409.97
643.93	22469.49
644.28	22272.62
644.62	22326.14
644.97	22287.09
645.31	21903.44
645.66	21833.26
646.00	21733.32
646.35	21641.30
646.70	21680.89
647.04	21552.28
647.39	21498.76
647.73	21242.90
648.08	21362.77
648.42	21426.40
648.77	21165.62
649.11	21161.52
649.46	20614.58
649.80	20499.89
650.14	21054.48
650.49	21241.53
650.83	21549.55
651.18	21604.98
651.52	21391.72
651.87	21507.22
652.21	21496.57
652.56	21690.17
652.90	21671.88
653.25	21786.29
653.59	22021.13
653.93	22223.74
654.28	22135.54
654.62	21994.37
654.97	21570.03
655.31	21367.69
655.65	20736.91
656.00	19396.99
656.34	18183.23
656.69	18085.20
657.03	19357.67
657.37	20737.73
657.72	21545.18
658.06	22204.35
658.40	22670.47
658.75	22593.19
659.09	22482.87
659.43	22437.00
659.78	22569.98
660.12	22450.93
660.46	22823.93
660.81	22916.50
661.15	22981.21
661.49	23224.78
661.84	23313.53
662.18	23573.49
662.52	23455.25
662.87	23551.37
663.21	23498.67
663.55	23884.50
663.89	24196.61
664.24	24232.39
664.58	24796.53
664.92	24776.05
665.26	25211.59
665.61	24734.55
665.95	24857.70
666.29	24867.80
666.63	24684.85
666.98	24641.71
667.32	24876.81
667.66	24906.58
668.00	25057.03
668.35	25273.03
668.69	25385.80
669.03	25557.56
669.37	25769.45
669.71	25884.69
670.06	25815.60
670.40	26402.14
670.74	26470.68
671.08	26457.84
671.42	26934.61
671.77	26810.10
672.11	26923.14
672.45	27322.36
672.79	27911.90
673.13	28259.24
673.47	28259.78
673.81	28724.26
674.16	28852.06
674.50	29102.18
674.84	29145.33
675.18	29448.15
675.52	29607.35
675.86	30179.41
676.20	30301.20
676.54	30337.24
676.88	30127.53
677.23	29925.19
677.57	30050.80
677.91	30105.69
678.25	29842.18
678.59	29836.72
678.93	29814.33
679.27	30045.07
679.61	29927.92
679.95	30067.73
680.29	30345.71
680.63	30595.01
680.97	30882.00
681.31	31259.10
681.65	31417.48
681.99	31749.25
682.33	31970.16
682.67	32170.31
683.01	32576.36
683.35	32853.79
683.69	32790.16
684.03	32530.48
684.37	32713.98
684.71	32916.05
685.05	33269.12
685.39	33907.26
685.73	33696.73
686.07	33632.56
686.41	32289.91
686.75	29686.54
687.09	26455.39
687.43	24420.25
687.77	25098.54
688.11	26969.29
688.45	28536.94
688.79	29369.51
689.13	29118.29
689.47	28981.49
689.80	29349.30
690.14	29478.19
690.48	30193.34
690.82	30600.48
691.16	30860.70
691.50	31494.48
691.84	31996.37
692.18	32416.89
692.52	33021.18
692.85	33464.63
693.19	33731.68
693.53	34020.31
693.87	34475.78
694.21	34561.79
694.55	34656.55
694.88	35138.77
695.22	35569.94
695.56	35569.39
695.90	35944.04
696.24	36248.77
696.58	36495.35
696.91	37066.87
697.25	37339.11
697.59	37374.88
697.93	37043.39
698.27	36689.77
698.60	36769.23
698.94	36676.39
699.28	36680.49
699.62	36970.20
699.95	37156.16
700.29	37141.69
700.63	37120.39
700.97	36881.73
701.30	37166.26
701.64	37001.61
701.98	37008.71
702.32	36773.05
702.65	36998.88
702.99	37323.55
703.33	37609.44
703.66	37964.15
704.00	37846.74
704.34	37744.61
704.68	38429.45
705.01	38323.78
705.35	38041.16
705.69	38026.68
706.02	37989.82
706.36	38074.20
706.70	38065.19
707.03	37723.31
707.37	38147.10
707.71	38280.63
708.04	38550.96
708.38	38542.23
708.72	38081.84
709.05	38070.65
709.39	38161.85
709.72	38042.79
710.06	38426.99
710.40	38688.59
710.73	38935.98
711.07	38826.48
711.40	38638.62
711.74	38483.24
712.08	38346.17
712.41	37689.18
712.75	37432.50
713.08	37266.20
713.42	36884.74
713.75	36932.52
714.09	37008.43
714.43	36602.39
714.76	36003.29
715.10	35683.81
715.43	36102.41
715.77	36221.74
716.10	35843.82
716.44	35371.97
716.77	34111.24
717.11	32967.65
717.44	32050.16
717.78	31467.18
718.11	30761.86
718.45	29987.72
718.78	29124.57
719.12	28803.72
719.45	28796.90
719.79	28834.31
720.12	29111.19
720.46	28832.67
720.79	30001.38
721.12	31125.58
721.46	32683.94
721.79	33410.29
722.13	33548.19
722.46	33365.78
722.80	32865.80
723.13	32150.11
723.46	31212.96
723.80	30093.95
724.13	29322.54
724.47	29577.86
724.80	29643.39
725.13	29724.76
725.47	30178.32
725.80	30273.89
726.14	30669.29
726.47	30786.98
726.80	30983.04
727.14	31011.98
727.47	30998.06
727.80	30717.89
728.14	30798.45
728.47	31425.67
728.80	31213.23
729.14	30703.97
729.47	30627.78
729.80	31355.22
730.14	31781.47
730.47	31918.00
730.80	31722.49
731.14	31576.40
731.47	31745.15
731.80	31632.38
732.14	32181.51
732.47	32464.40
732.80	32698.42
733.13	32970.39
733.47	33178.46
733.80	33482.10
734.13	33443.60
734.46	33434.59
734.80	33270.21
735.13	33221.88
735.46	32995.51
735.79	32841.77
736.13	33288.23
736.46	33126.58
736.79	33406.74
737.12	33764.72
737.45	33828.89
737.79	34128.72
738.12	34273.44
738.45	33778.10
738.78	33331.65
739.11	33124.39
739.45	33565.93
739.78	33669.97
740.11	34015.94
740.44	33832.72
740.77	33873.13
741.10	33500.67
741.44	33420.94
741.77	33263.65
742.10	33580.13
742.43	33678.98
742.76	33564.30
743.09	33898.25
743.42	33707.11
743.75	33896.61
744.08	33381.89
744.42	32599.02
744.75	32407.33
745.08	32579.91
745.41	32782.79
745.74	32954.00
746.07	33183.37
746.40	33080.16
746.73	33040.84
747.06	33237.44
747.39	33302.98
747.72	33489.48
748.05	33223.79
748.38	33151.97
748.71	33207.68
749.04	32984.04
749.37	32831.67
749.71	32702.78
750.04	32769.96
750.37	33377.79
750.70	33274.85
751.03	32740.19
751.36	32680.12
751.69	32807.37
752.02	33272.67
752.34	33372.61
752.67	33455.89
753.00	33488.38
753.33	33837.63
753.66	34173.50
753.99	34303.20
754.32	34265.25
754.65	34541.86
754.98	34132.27
755.31	33797.49
755.64	33231.98
755.97	33329.46
756.30	33195.39
756.63	33035.92
756.96	32597.11
757.29	32312.30
757.61	32249.23
757.94	32152.29
758.27	31845.37
758.60	31542.27
758.93	30809.91
759.26	27857.02
759.59	22600.84
759.92	15831.07
760.24	10128.43
760.57	6901.38
760.90	5751.52
761.23	6821.10
761.56	10217.73
761.89	14146.28
762.22	16494.34
762.54	16135.81
762.87	14173.04
763.20	13008.15
763.53	12817.01
763.86	13290.50
764.18	14111.05
764.51	15423.12
764.84	16835.40
765.17	18184.60
765.50	19702.82
765.82	20890.10
766.15	21983.99
766.48	22911.31
766.81	24140.64
767.13	25593.06
767.46	26428.90
767.79	27214.77
768.12	27558.56
768.44	27925.28
768.77	27916.27
769.10	28053.35
769.42	27743.15
769.75	27602.80
770.08	27590.51
770.41	27961.87
770.73	27969.52
771.06	27714.75
771.39	27477.73
771.71	27238.53
772.04	27141.32
772.37	27158.80
772.69	27247.54
773.02	27442.51
773.35	27487.29
773.67	27887.60
774.00	27921.73
774.33	27876.95
774.65	27346.39
774.98	27158.25
775.30	27276.49
775.63	27587.78
775.96	27329.73
776.28	27521.97
776.61	27296.15
776.93	27237.98
777.26	26746.20
777.59	26310.94
777.91	25943.40
778.24	25921.28
778.56	25763.45
778.89	25836.63
779.22	25505.13
779.54	25544.72
779.87	25133.49
780.19	25315.62
780.52	25121.48
780.84	25069.32
781.17	25124.48
781.49	25057.03
781.82	24944.26
782.14	24771.14
782.47	24746.84
782.79	24570.16
783.12	24255.05
783.44	24029.50
783.77	23658.95
784.09	23704.83
784.42	23954.41
784.74	23998.37
785.07	23914.27
785.39	23645.57
