SpectraSuite Data File
++++++++++++++++++++++++++++++++++++
Date: Mon Apr 24 13:40:46 ART 2023
User: guille
Dark Spectrum Present: No
Reference Spectrum Present: No
Number of Sampled Component Spectra: 1
Spectrometers: USB2+H13674
Integration Time (usec): 3000 (USB2+H13674)
Spectra Averaged: 10 (USB2+H13674)
Boxcar Smoothing: 0 (USB2+H13674)
Correct for Electrical Dark: No (USB2+H13674)
Strobe/Lamp Enabled: No (USB2+H13674)
Correct for Detector Non-linearity: No (USB2+H13674)
Correct for Stray Light: No (USB2+H13674)
Number of Pixels in Processed Spectrum: 2048
>>>>>Begin Processed Spectral Data<<<<<
339.87	0.00
340.25	0.00
340.63	0.00
341.02	0.00
341.40	0.00
341.78	0.00
342.16	0.00
342.55	0.00
342.93	0.00
343.31	0.00
343.69	0.00
344.08	0.00
344.46	0.00
344.84	0.00
345.22	0.00
345.60	0.00
345.99	0.00
346.37	0.00
346.75	0.00
347.13	0.00
347.51	0.00
347.90	0.00
348.28	0.00
348.66	0.00
349.04	0.00
349.42	0.00
349.80	0.00
350.19	0.00
350.57	0.00
350.95	0.00
351.33	0.00
351.71	0.00
352.09	0.00
352.47	0.00
352.86	0.00
353.24	1.91
353.62	3.28
354.00	6.01
354.38	4.64
354.76	15.02
355.14	2.18
355.52	15.02
355.90	9.83
356.28	13.11
356.67	18.84
357.05	9.83
357.43	6.28
357.81	20.48
358.19	7.37
358.57	23.48
358.95	17.20
359.33	17.75
359.71	8.46
360.09	3.28
360.47	10.92
360.85	16.11
361.23	4.92
361.61	4.64
361.99	10.92
362.37	15.02
362.75	1.37
363.13	4.92
363.51	3.82
363.89	0.82
364.27	2.18
364.65	1.64
365.03	0.55
365.41	1.09
365.79	4.37
366.17	0.00
366.55	3.55
366.93	0.55
367.31	0.00
367.69	0.00
368.07	0.82
368.45	0.00
368.83	4.64
369.21	4.37
369.59	0.00
369.97	4.64
370.35	0.00
370.73	4.64
371.11	1.09
371.49	0.00
371.87	1.37
372.25	3.00
372.62	0.00
373.00	3.00
373.38	0.00
373.76	3.28
374.14	6.28
374.52	0.27
374.90	4.37
375.28	1.64
375.66	0.82
376.03	0.00
376.41	0.55
376.79	0.27
377.17	0.00
377.55	0.00
377.93	0.00
378.31	0.00
378.68	1.64
379.06	0.82
379.44	0.00
379.82	13.11
380.20	13.38
380.58	1.91
380.95	1.37
381.33	6.55
381.71	5.46
382.09	3.28
382.47	0.00
382.85	1.09
383.22	3.82
383.60	2.18
383.98	7.37
384.36	2.46
384.73	2.73
385.11	2.46
385.49	12.56
385.87	3.82
386.25	0.00
386.62	0.00
387.00	1.64
387.38	0.00
387.76	0.00
388.13	12.01
388.51	2.18
388.89	0.27
389.26	4.92
389.64	0.00
390.02	9.01
390.40	1.09
390.77	9.28
391.15	4.10
391.53	2.18
391.90	2.18
392.28	1.64
392.66	0.00
393.04	4.92
393.41	9.56
393.79	2.18
394.17	0.00
394.54	0.00
394.92	4.37
395.30	0.55
395.67	2.18
396.05	0.00
396.42	1.64
396.80	3.00
397.18	7.37
397.55	1.64
397.93	12.83
398.31	3.28
398.68	4.64
399.06	2.46
399.44	8.74
399.81	1.91
400.19	0.82
400.56	0.00
400.94	2.18
401.32	9.28
401.69	3.82
402.07	3.55
402.44	0.27
402.82	7.92
403.19	5.73
403.57	5.46
403.95	10.92
404.32	0.00
404.70	0.00
405.07	13.93
405.45	1.91
405.82	5.73
406.20	6.55
406.57	0.00
406.95	10.10
407.32	2.73
407.70	6.28
408.07	2.73
408.45	9.01
408.82	5.73
409.20	3.55
409.57	0.00
409.95	2.18
410.32	5.73
410.70	1.91
411.07	6.28
411.45	0.82
411.82	0.00
412.20	1.64
412.57	1.09
412.95	1.64
413.32	4.92
413.70	1.09
414.07	9.83
414.45	8.74
414.82	12.56
415.19	11.47
415.57	10.10
415.94	5.46
416.32	4.10
416.69	0.00
417.07	5.46
417.44	4.92
417.81	3.28
418.19	4.37
418.56	3.82
418.94	8.46
419.31	7.37
419.68	0.00
420.06	3.00
420.43	5.73
420.80	7.65
421.18	6.01
421.55	4.64
421.93	4.92
422.30	5.46
422.67	1.91
423.05	5.73
423.42	5.73
423.79	0.82
424.17	0.00
424.54	1.09
424.91	3.00
425.29	6.55
425.66	15.29
426.03	14.75
426.40	5.19
426.78	3.00
427.15	1.64
427.52	17.75
427.90	9.83
428.27	7.65
428.64	0.00
429.02	7.92
429.39	2.73
429.76	0.00
430.13	10.38
430.51	16.11
430.88	3.55
431.25	5.46
431.62	3.55
432.00	3.28
432.37	4.10
432.74	2.18
433.11	0.82
433.48	4.64
433.86	8.46
434.23	2.18
434.60	3.28
434.97	4.10
435.35	9.01
435.72	10.65
436.09	11.20
436.46	6.28
436.83	12.56
437.21	6.28
437.58	5.46
437.95	1.91
438.32	5.73
438.69	1.64
439.06	0.82
439.44	3.82
439.81	2.73
440.18	7.10
440.55	3.82
440.92	9.56
441.29	9.28
441.66	6.28
442.03	8.46
442.41	0.00
442.78	5.19
443.15	9.28
443.52	2.46
443.89	0.55
444.26	3.00
444.63	4.92
445.00	5.46
445.37	11.20
445.74	5.46
446.12	6.55
446.49	0.82
446.86	4.37
447.23	10.65
447.60	3.82
447.97	2.46
448.34	1.37
448.71	0.82
449.08	0.27
449.45	9.28
449.82	3.82
450.19	7.65
450.56	5.46
450.93	14.20
451.30	13.65
451.67	4.10
452.04	9.83
452.41	4.64
452.78	13.38
453.15	8.74
453.52	0.82
453.89	0.00
454.26	3.00
454.63	11.74
455.00	7.65
455.37	2.18
455.74	8.74
456.11	6.01
456.48	2.73
456.85	0.00
457.22	4.10
457.59	1.91
457.96	8.19
458.33	6.55
458.70	4.92
459.07	7.37
459.43	9.83
459.80	20.75
460.17	11.20
460.54	10.10
460.91	4.37
461.28	3.55
461.65	13.38
462.02	9.83
462.39	10.65
462.76	10.65
463.12	1.64
463.49	9.01
463.86	2.46
464.23	3.55
464.60	18.02
464.97	3.28
465.34	2.46
465.70	7.37
466.07	1.91
466.44	1.91
466.81	1.37
467.18	7.37
467.55	10.92
467.91	7.37
468.28	10.65
468.65	0.55
469.02	7.37
469.39	24.30
469.75	9.28
470.12	14.47
470.49	6.83
470.86	18.30
471.23	4.92
471.59	0.27
471.96	0.00
472.33	22.94
472.70	6.55
473.06	3.55
473.43	3.55
473.80	3.82
474.17	5.73
474.53	6.55
474.90	8.74
475.27	4.10
475.64	4.64
476.00	7.65
476.37	8.46
476.74	6.83
477.11	0.82
477.47	24.30
477.84	6.01
478.21	1.09
478.57	2.73
478.94	7.92
479.31	12.29
479.67	18.02
480.04	8.74
480.41	4.64
480.77	4.92
481.14	3.28
481.51	19.66
481.87	5.73
482.24	4.10
482.61	8.46
482.97	0.82
483.34	7.92
483.71	3.82
484.07	2.73
484.44	3.55
484.80	7.65
485.17	12.56
485.54	0.00
485.90	3.28
486.27	9.01
486.63	5.46
487.00	7.65
487.37	1.37
487.73	0.82
488.10	9.28
488.46	10.92
488.83	8.19
489.19	0.00
489.56	3.55
489.93	5.46
490.29	7.65
490.66	7.10
491.02	16.11
491.39	9.56
491.75	7.37
492.12	16.11
492.48	7.10
492.85	3.00
493.21	5.73
493.58	6.01
493.94	4.10
494.31	10.38
494.67	4.37
495.04	8.74
495.40	18.57
495.77	11.20
496.13	6.55
496.50	15.02
496.86	13.65
497.23	6.01
497.59	5.19
497.96	6.28
498.32	4.10
498.69	6.01
499.05	7.10
499.41	2.18
499.78	16.66
500.14	3.55
500.51	1.91
500.87	1.37
501.24	16.11
501.60	4.92
501.96	15.84
502.33	7.92
502.69	7.37
503.06	5.19
503.42	7.65
503.78	18.02
504.15	1.64
504.51	12.56
504.88	4.10
505.24	8.74
505.60	9.01
505.97	11.20
506.33	5.73
506.69	4.64
507.06	13.93
507.42	1.09
507.78	10.10
508.15	7.10
508.51	8.46
508.87	8.74
509.24	8.19
509.60	0.00
509.96	0.00
510.33	12.01
510.69	10.65
511.05	1.37
511.41	3.55
511.78	14.20
512.14	3.55
512.50	0.55
512.87	9.83
513.23	1.91
513.59	8.74
513.95	3.00
514.32	7.10
514.68	22.39
515.04	12.29
515.40	7.37
515.77	7.10
516.13	15.29
516.49	1.37
516.85	9.28
517.22	8.46
517.58	2.18
517.94	15.29
518.30	1.64
518.66	4.92
519.03	13.93
519.39	14.75
519.75	12.83
520.11	4.92
520.47	10.10
520.83	9.01
521.20	4.92
521.56	13.93
521.92	17.75
522.28	5.19
522.64	3.28
523.00	7.65
523.37	22.66
523.73	3.00
524.09	9.83
524.45	15.84
524.81	3.00
525.17	19.39
525.53	6.01
525.89	13.93
526.26	5.19
526.62	7.92
526.98	15.56
527.34	4.92
527.70	18.57
528.06	3.00
528.42	7.65
528.78	14.47
529.14	6.83
529.50	5.73
529.86	7.65
530.22	2.73
530.59	6.83
530.95	6.83
531.31	14.20
531.67	8.19
532.03	10.38
532.39	0.27
532.75	15.02
533.11	8.19
533.47	9.01
533.83	6.28
534.19	2.46
534.55	14.47
534.91	14.47
535.27	11.47
535.63	3.28
535.99	1.09
536.35	1.37
536.71	16.38
537.07	2.18
537.43	9.83
537.79	0.00
538.15	1.37
538.51	15.56
538.87	12.29
539.22	9.83
539.58	3.28
539.94	8.19
540.30	8.19
540.66	13.38
541.02	8.46
541.38	3.55
541.74	6.83
542.10	18.02
542.46	9.28
542.82	17.48
543.18	9.56
543.53	7.37
543.89	18.30
544.25	15.84
544.61	11.47
544.97	4.37
545.33	13.65
545.69	4.37
546.05	14.20
546.40	7.65
546.76	2.73
547.12	4.64
547.48	8.46
547.84	16.11
548.20	5.46
548.55	14.20
548.91	7.65
549.27	12.56
549.63	15.02
549.99	4.10
550.34	3.55
550.70	16.38
551.06	5.19
551.42	7.65
551.78	3.55
552.13	12.83
552.49	8.46
552.85	15.02
553.21	6.55
553.57	18.02
553.92	17.20
554.28	4.10
554.64	11.20
555.00	7.10
555.35	8.46
555.71	7.37
556.07	1.37
556.42	4.10
556.78	1.91
557.14	3.55
557.50	22.94
557.85	4.37
558.21	5.46
558.57	11.74
558.92	6.01
559.28	19.93
559.64	3.28
559.99	0.00
560.35	16.66
560.71	5.73
561.06	10.38
561.42	7.37
561.78	5.46
562.13	0.82
562.49	4.10
562.85	6.28
563.20	21.84
563.56	4.92
563.92	4.10
564.27	3.00
564.63	19.11
564.98	5.19
565.34	20.21
565.70	14.20
566.05	4.10
566.41	5.19
566.76	0.27
567.12	1.37
567.48	17.20
567.83	8.46
568.19	11.20
568.54	6.28
568.90	16.66
569.25	7.37
569.61	11.47
569.97	9.83
570.32	13.38
570.68	5.46
571.03	7.37
571.39	12.29
571.74	4.64
572.10	0.00
572.45	9.56
572.81	15.84
573.16	3.55
573.52	13.93
573.87	5.46
574.23	12.83
574.58	2.18
574.94	9.01
575.29	8.46
575.65	5.73
576.00	13.93
576.36	5.46
576.71	17.75
577.07	4.92
577.42	10.38
577.78	4.64
578.13	19.11
578.48	11.47
578.84	0.00
579.19	11.20
579.55	17.48
579.90	24.58
580.26	6.55
580.61	13.65
580.96	2.73
581.32	3.28
581.67	11.74
582.03	2.73
582.38	1.91
582.73	4.37
583.09	12.29
583.44	7.65
583.79	10.10
584.15	19.11
584.50	4.92
584.86	23.21
585.21	4.92
585.56	5.46
585.92	7.65
586.27	3.00
586.62	11.47
586.98	5.46
587.33	6.28
587.68	7.65
588.04	17.20
588.39	12.83
588.74	3.28
589.09	7.65
589.45	18.57
589.80	15.29
590.15	4.64
590.51	4.37
590.86	15.02
591.21	13.38
591.56	3.82
591.92	6.83
592.27	13.38
592.62	6.83
592.97	15.84
593.33	17.48
593.68	4.92
594.03	5.73
594.38	11.74
594.74	3.55
595.09	13.65
595.44	4.37
595.79	18.57
596.14	8.46
596.50	5.46
596.85	11.20
597.20	15.29
597.55	4.10
597.90	5.46
598.26	4.10
598.61	14.47
598.96	8.46
599.31	9.56
599.66	2.46
600.01	0.00
600.37	1.91
600.72	6.55
601.07	11.20
601.42	13.65
601.77	8.19
602.12	10.65
602.47	7.37
602.83	6.55
603.18	0.55
603.53	4.92
603.88	0.82
604.23	13.93
604.58	30.31
604.93	8.74
605.28	6.55
605.63	24.58
605.98	0.00
606.33	7.10
606.69	3.55
607.04	13.65
607.39	12.01
607.74	5.46
608.09	15.56
608.44	3.82
608.79	6.28
609.14	14.75
609.49	4.92
609.84	20.21
610.19	7.37
610.54	16.11
610.89	13.38
611.24	0.82
611.59	11.74
611.94	4.92
612.29	0.27
612.64	7.10
612.99	16.66
613.34	14.75
613.69	10.65
614.04	9.83
614.39	13.11
614.74	13.93
615.09	0.00
615.44	5.19
615.79	6.28
616.14	2.73
616.48	3.82
616.83	4.64
617.18	15.56
617.53	13.65
617.88	3.82
618.23	0.55
618.58	10.92
618.93	6.83
619.28	0.55
619.63	10.92
619.98	5.19
620.32	1.09
620.67	15.56
621.02	4.64
621.37	11.74
621.72	8.74
622.07	0.82
622.42	16.11
622.76	7.92
623.11	15.84
623.46	13.38
623.81	7.92
624.16	0.27
624.51	9.83
624.85	17.75
625.20	5.73
625.55	6.28
625.90	7.92
626.25	9.56
626.59	10.92
626.94	9.01
627.29	0.82
627.64	3.28
627.99	3.55
628.33	16.11
628.68	9.56
629.03	1.91
629.38	9.83
629.72	12.56
630.07	5.19
630.42	7.10
630.77	3.55
631.11	3.82
631.46	1.37
631.81	4.10
632.16	0.55
632.50	7.65
632.85	14.20
633.20	6.28
633.54	0.55
633.89	7.92
634.24	10.38
634.58	3.55
634.93	9.01
635.28	11.20
635.63	14.75
635.97	19.66
636.32	27.03
636.67	7.65
637.01	1.37
637.36	19.66
637.70	6.83
638.05	10.38
638.40	9.01
638.74	5.46
639.09	5.46
639.44	8.74
639.78	2.18
640.13	5.19
640.47	3.28
640.82	3.00
641.17	15.29
641.51	2.73
641.86	18.02
642.20	1.09
642.55	10.65
642.90	3.82
643.24	6.28
643.59	11.74
643.93	6.01
644.28	7.65
644.62	6.28
644.97	5.73
645.31	2.73
645.66	28.13
646.00	6.28
646.35	21.85
646.70	18.84
647.04	4.37
647.39	9.28
647.73	4.37
648.08	15.29
648.42	5.19
648.77	4.10
649.11	10.65
649.46	8.74
649.80	9.28
650.14	16.11
650.49	6.28
650.83	10.10
651.18	3.82
651.52	12.83
651.87	10.38
652.21	1.91
652.56	1.09
652.90	5.46
653.25	15.02
653.59	23.48
653.93	7.92
654.28	10.65
654.62	6.83
654.97	4.64
655.31	12.56
655.65	11.74
656.00	7.92
656.34	8.74
656.69	3.55
657.03	3.28
657.37	6.28
657.72	13.65
658.06	6.55
658.40	6.55
658.75	11.74
659.09	7.65
659.43	4.37
659.78	12.01
660.12	15.29
660.46	9.01
660.81	9.83
661.15	7.65
661.49	8.19
661.84	14.20
662.18	18.30
662.52	3.55
662.87	12.01
663.21	7.92
663.55	6.28
663.89	13.93
664.24	9.01
664.58	7.92
664.92	10.92
665.26	5.46
665.61	9.83
665.95	9.83
666.29	6.83
666.63	5.46
666.98	17.75
667.32	9.83
667.66	5.19
668.00	14.75
668.35	18.02
668.69	10.38
669.03	6.83
669.37	6.55
669.71	8.46
670.06	15.02
670.40	7.10
670.74	9.01
671.08	10.10
671.42	9.83
671.77	18.30
672.11	5.46
672.45	8.19
672.79	3.28
673.13	4.64
673.47	1.91
673.81	9.01
674.16	7.37
674.50	10.38
674.84	9.01
675.18	11.47
675.52	5.46
675.86	8.74
676.20	14.20
676.54	10.65
676.88	4.10
677.23	2.46
677.57	0.00
677.91	0.27
678.25	9.56
678.59	12.29
678.93	14.20
679.27	11.47
679.61	6.01
679.95	4.92
680.29	16.11
680.63	13.11
680.97	0.00
681.31	13.93
681.65	5.73
681.99	11.47
682.33	1.91
682.67	13.38
683.01	2.46
683.35	10.38
683.69	0.82
684.03	14.20
684.37	5.73
684.71	14.20
685.05	9.01
685.39	13.38
685.73	9.28
686.07	8.46
686.41	8.46
686.75	5.73
687.09	8.74
687.43	3.55
687.77	3.28
688.11	10.65
688.45	0.55
688.79	9.56
689.13	1.91
689.47	8.74
689.80	7.65
690.14	12.83
690.48	7.65
690.82	15.29
691.16	15.56
691.50	5.73
691.84	2.73
692.18	1.09
692.52	3.82
692.85	11.47
693.19	13.93
693.53	8.46
693.87	7.10
694.21	12.56
694.55	4.37
694.88	6.55
695.22	17.48
695.56	3.82
695.90	6.01
696.24	22.94
696.58	14.75
696.91	12.56
697.25	8.74
697.59	13.38
697.93	8.46
698.27	11.20
698.60	0.27
698.94	17.75
699.28	20.21
699.62	5.46
699.95	1.91
700.29	10.65
700.63	12.83
700.97	2.18
701.30	10.65
701.64	3.28
701.98	8.46
702.32	13.11
702.65	4.37
702.99	8.46
703.33	4.92
703.66	1.91
704.00	3.00
704.34	16.11
704.68	23.48
705.01	4.64
705.35	11.74
705.69	15.56
706.02	0.27
706.36	14.75
706.70	15.84
707.03	9.28
707.37	5.73
707.71	10.92
708.04	15.29
708.38	9.28
708.72	6.55
709.05	6.01
709.39	3.55
709.72	6.83
710.06	3.00
710.40	7.92
710.73	13.11
711.07	9.28
711.40	72.09
711.74	12.29
712.08	2.73
712.41	16.93
712.75	11.20
713.08	22.94
713.42	13.11
713.75	0.00
714.09	1.64
714.43	1.37
714.76	4.92
715.10	0.00
715.43	7.92
715.77	18.30
716.10	16.11
716.44	12.01
716.77	4.64
717.11	9.28
717.44	11.74
717.78	13.93
718.11	9.28
718.45	6.83
718.78	13.93
719.12	26.21
719.45	10.10
719.79	3.28
720.12	12.56
720.46	16.38
720.79	4.64
721.12	14.75
721.46	7.37
721.79	17.48
722.13	11.47
722.46	17.20
722.80	8.74
723.13	2.46
723.46	8.19
723.80	10.10
724.13	12.56
724.47	11.20
724.80	3.55
725.13	21.03
725.47	4.37
725.80	2.46
726.14	24.30
726.47	14.20
726.80	9.56
727.14	3.82
727.47	0.00
727.80	8.19
728.14	6.83
728.47	10.92
728.80	0.00
729.14	4.92
729.47	4.92
729.80	0.55
730.14	13.11
730.47	19.93
730.80	0.00
731.14	0.82
731.47	15.56
731.80	6.28
732.14	24.30
732.47	14.47
732.80	6.55
733.13	19.11
733.47	6.55
733.80	5.19
734.13	16.66
734.46	10.92
734.80	15.56
735.13	17.48
735.46	2.73
735.79	0.00
736.13	10.10
736.46	3.82
736.79	6.83
737.12	3.55
737.45	6.01
737.79	2.73
738.12	8.19
738.45	7.65
738.78	7.92
739.11	7.37
739.45	7.37
739.78	1.09
740.11	7.92
740.44	14.75
740.77	18.57
741.10	6.83
741.44	13.11
741.77	13.93
742.10	6.28
742.43	19.93
742.76	14.47
743.09	4.64
743.42	13.93
743.75	0.82
744.08	11.47
744.42	9.83
744.75	0.27
745.08	0.00
745.41	1.64
745.74	7.92
746.07	12.29
746.40	7.92
746.73	7.10
747.06	2.46
747.39	0.00
747.72	5.73
748.05	6.83
748.38	5.46
748.71	16.11
749.04	8.46
749.37	13.38
749.71	8.46
750.04	3.28
750.37	8.46
750.70	10.65
751.03	12.56
751.36	4.92
751.69	8.19
752.02	13.93
752.34	18.57
752.67	2.46
753.00	12.29
753.33	10.92
753.66	3.55
753.99	20.75
754.32	8.19
754.65	16.11
754.98	17.75
755.31	0.00
755.64	14.75
755.97	1.91
756.30	10.92
756.63	11.74
756.96	13.11
757.29	24.58
757.61	4.92
757.94	19.66
758.27	12.56
758.60	8.74
758.93	19.11
759.26	1.37
759.59	2.18
759.92	19.66
760.24	15.02
760.57	18.84
760.90	26.49
761.23	8.19
761.56	1.91
761.89	1.09
762.22	12.29
762.54	6.01
762.87	11.47
763.20	11.20
763.53	15.84
763.86	13.65
764.18	7.65
764.51	3.82
764.84	9.56
765.17	6.01
765.50	14.47
765.82	17.75
766.15	8.46
766.48	14.20
766.81	3.82
767.13	8.74
767.46	9.28
767.79	1.91
768.12	11.74
768.44	10.10
768.77	2.46
769.10	13.93
769.42	9.56
769.75	11.47
770.08	5.73
770.41	11.74
770.73	22.66
771.06	6.01
771.39	22.66
771.71	9.28
772.04	14.20
772.37	6.28
772.69	5.73
773.02	13.38
773.35	14.20
773.67	16.11
774.00	7.65
774.33	25.12
774.65	22.39
774.98	5.46
775.30	33.31
775.63	13.65
775.96	18.57
776.28	21.03
776.61	20.75
776.93	19.39
777.26	11.20
777.59	1.91
777.91	9.83
778.24	19.39
778.56	24.03
778.89	4.92
779.22	19.39
779.54	2.73
779.87	14.75
780.19	26.76
780.52	23.76
780.84	25.12
781.17	26.49
781.49	12.56
781.82	10.38
782.14	21.57
782.47	24.03
782.79	13.93
783.12	17.20
783.44	13.93
783.77	11.47
784.09	6.55
784.42	26.21
784.74	21.57
785.07	20.75
785.39	38.50
785.72	25.67
786.04	3.28
786.37	18.02
786.69	14.20
787.01	23.21
787.34	21.84
787.66	21.30
787.99	22.66
788.31	6.01
788.64	27.03
788.96	27.85
789.28	31.13
789.61	14.75
789.93	20.75
790.26	22.39
790.58	16.93
790.90	23.21
791.23	17.75
791.55	25.12
791.87	22.66
792.20	18.57
792.52	18.30
792.85	19.66
793.17	27.85
793.49	11.20
793.82	21.03
794.14	13.93
794.46	18.30
794.78	6.01
795.11	19.66
795.43	23.76
795.75	34.13
796.08	19.93
796.40	22.39
796.72	21.57
797.05	15.02
797.37	13.65
797.69	18.57
798.01	21.30
798.34	9.28
798.66	12.01
798.98	19.39
799.30	28.67
799.63	20.21
799.95	4.92
800.27	29.22
800.59	37.14
800.91	26.21
801.24	8.19
801.56	15.84
801.88	11.47
802.20	7.10
802.53	20.48
802.85	21.85
803.17	22.94
803.49	33.31
803.81	24.58
804.13	25.12
804.46	31.40
804.78	7.65
805.10	9.28
805.42	30.86
805.74	28.40
806.06	4.64
806.38	27.58
806.71	29.49
807.03	21.84
807.35	22.39
807.67	24.58
807.99	23.21
808.31	46.97
808.63	19.93
808.95	40.14
809.27	18.02
809.59	27.31
809.91	19.11
810.24	11.20
810.56	8.46
810.88	24.58
811.20	7.92
811.52	23.48
811.84	16.11
812.16	19.39
812.48	11.74
812.80	4.10
813.12	9.56
813.44	17.75
813.76	15.84
814.08	17.20
814.40	23.48
814.72	27.31
815.04	12.56
815.36	20.48
815.68	8.74
816.00	11.74
816.32	3.55
816.64	5.73
816.96	28.94
817.28	12.56
817.60	24.58
817.92	5.46
818.24	5.73
818.55	7.37
818.87	24.58
819.19	11.74
819.51	8.46
819.83	28.13
820.15	13.65
820.47	15.02
820.79	16.38
821.11	19.11
821.43	20.75
821.75	21.03
822.06	14.20
822.38	15.56
822.70	19.66
823.02	10.92
823.34	12.83
823.66	13.11
823.98	14.47
824.29	36.04
824.61	23.21
824.93	15.84
825.25	16.66
825.57	25.67
825.88	10.10
826.20	8.74
826.52	28.40
826.84	22.66
827.16	18.57
827.47	12.83
827.79	14.20
828.11	24.85
828.43	19.66
828.75	28.94
829.06	8.46
829.38	15.84
829.70	21.84
830.02	7.10
830.33	25.12
830.65	16.11
830.97	14.20
831.28	6.01
831.60	13.11
831.92	13.11
832.24	5.73
832.55	13.65
832.87	10.92
833.19	27.31
833.50	13.93
833.82	16.93
834.14	20.75
834.45	9.28
834.77	8.19
835.09	15.02
835.40	33.59
835.72	13.93
836.04	11.74
836.35	31.95
836.67	21.30
836.99	20.21
837.30	28.40
837.62	13.65
837.93	13.65
838.25	3.28
838.57	24.58
838.88	24.58
839.20	20.48
839.51	22.39
839.83	23.48
840.15	4.37
840.46	14.20
840.78	1.91
841.09	2.46
841.41	23.21
841.72	13.38
842.04	12.29
842.35	21.57
842.67	8.74
842.98	19.93
843.30	29.49
843.62	17.75
843.93	19.39
844.25	13.93
844.56	20.75
844.88	18.02
845.19	20.75
845.51	10.92
845.82	9.28
846.13	14.20
846.45	22.66
846.76	6.28
847.08	14.75
847.39	13.93
847.71	13.65
848.02	20.75
848.34	20.48
848.65	33.86
848.97	12.83
849.28	33.59
849.59	20.75
849.91	19.93
850.22	12.56
850.54	10.10
850.85	10.92
851.16	32.49
851.48	14.47
851.79	18.84
852.10	19.66
852.42	15.56
852.73	31.68
853.05	9.01
853.36	14.47
853.67	18.84
853.99	18.57
854.30	9.01
854.61	4.92
854.93	37.96
855.24	20.75
855.55	7.37
855.87	12.56
856.18	6.55
856.49	10.92
856.80	10.65
857.12	28.94
857.43	17.48
857.74	18.02
858.06	22.94
858.37	1.37
858.68	3.82
858.99	16.66
859.31	20.21
859.62	16.93
859.93	21.03
860.24	21.57
860.56	11.47
860.87	25.12
861.18	14.47
861.49	17.20
861.80	12.29
862.12	12.01
862.43	32.77
862.74	7.92
863.05	22.39
863.36	10.92
863.68	8.19
863.99	16.11
864.30	8.19
864.61	3.28
864.92	22.12
865.23	12.29
865.55	23.21
865.86	4.64
866.17	28.13
866.48	17.75
866.79	16.11
867.10	0.00
867.41	20.21
867.72	15.84
868.04	11.47
868.35	10.65
868.66	14.75
868.97	12.29
869.28	15.84
869.59	15.84
869.90	22.12
870.21	16.38
870.52	10.38
870.83	20.75
871.14	20.21
871.45	1.91
871.76	16.93
872.07	3.28
872.38	24.03
872.69	12.29
873.00	16.66
873.31	12.29
873.62	13.65
873.93	17.75
874.24	10.92
874.55	11.20
874.86	18.57
875.17	24.03
875.48	7.92
875.79	16.93
876.10	27.03
876.41	12.56
876.72	17.48
877.03	17.75
877.34	19.39
877.65	6.28
877.96	14.47
878.27	8.46
878.58	11.74
878.89	15.29
879.20	14.75
879.51	11.74
879.81	12.83
880.12	15.84
880.43	6.28
880.74	12.29
881.05	12.56
881.36	8.46
881.67	7.10
