SpectraSuite Data File
++++++++++++++++++++++++++++++++++++
Date: Mon Apr 24 13:58:45 ART 2023
User: guille
Dark Spectrum Present: No
Reference Spectrum Present: No
Number of Sampled Component Spectra: 1
Spectrometers: USB2+H13674
Integration Time (usec): 2000 (USB2+H13674)
Spectra Averaged: 10 (USB2+H13674)
Boxcar Smoothing: 0 (USB2+H13674)
Correct for Electrical Dark: No (USB2+H13674)
Strobe/Lamp Enabled: No (USB2+H13674)
Correct for Detector Non-linearity: No (USB2+H13674)
Correct for Stray Light: No (USB2+H13674)
Number of Pixels in Processed Spectrum: 2048
>>>>>Begin Processed Spectral Data<<<<<
339.87	0.00
340.25	0.00
340.63	0.00
341.02	0.00
341.40	0.00
341.78	0.00
342.16	0.00
342.55	0.00
342.93	0.00
343.31	0.00
343.69	0.00
344.08	0.00
344.46	0.00
344.84	0.00
345.22	0.00
345.60	0.00
345.99	0.00
346.37	0.00
346.75	0.00
347.13	0.00
347.51	0.00
347.90	0.00
348.28	0.00
348.66	0.00
349.04	0.00
349.42	0.00
349.80	0.00
350.19	0.00
350.57	0.00
350.95	0.00
351.33	0.00
351.71	0.00
352.09	0.00
352.47	0.00
352.86	0.00
353.24	0.00
353.62	0.00
354.00	0.00
354.38	0.00
354.76	0.00
355.14	0.00
355.52	0.00
355.90	0.00
356.28	0.00
356.67	0.00
357.05	0.00
357.43	0.00
357.81	0.00
358.19	0.00
358.57	0.00
358.95	0.00
359.33	0.00
359.71	0.00
360.09	0.00
360.47	0.00
360.85	0.00
361.23	0.00
361.61	0.00
361.99	0.00
362.37	0.00
362.75	0.00
363.13	0.00
363.51	0.00
363.89	0.00
364.27	0.00
364.65	0.00
365.03	0.00
365.41	0.00
365.79	0.00
366.17	0.00
366.55	0.00
366.93	0.00
367.31	0.00
367.69	0.00
368.07	0.00
368.45	0.00
368.83	0.00
369.21	0.00
369.59	0.00
369.97	0.00
370.35	0.00
370.73	0.00
371.11	0.00
371.49	0.00
371.87	0.00
372.25	0.00
372.62	0.00
373.00	0.00
373.38	0.00
373.76	0.00
374.14	0.00
374.52	0.00
374.90	0.00
375.28	0.00
375.66	0.00
376.03	0.00
376.41	0.00
376.79	0.00
377.17	0.00
377.55	0.00
377.93	0.00
378.31	0.00
378.68	0.00
379.06	0.00
379.44	0.00
379.82	0.00
380.20	0.00
380.58	0.00
380.95	0.00
381.33	0.00
381.71	0.00
382.09	0.00
382.47	0.00
382.85	0.00
383.22	0.00
383.60	0.00
383.98	0.00
384.36	0.00
384.73	0.00
385.11	0.55
385.49	0.00
385.87	0.00
386.25	7.10
386.62	7.37
387.00	9.01
387.38	3.55
387.76	8.19
388.13	26.49
388.51	27.03
388.89	39.59
389.26	71.54
389.64	158.92
390.02	168.48
390.40	190.32
390.77	219.54
391.15	289.45
391.53	323.03
391.90	311.02
392.28	310.75
392.66	260.23
393.04	171.76
393.41	70.45
393.79	69.08
394.17	164.66
394.54	314.57
394.92	441.82
395.30	552.41
395.67	600.19
396.05	582.99
396.42	457.93
396.80	293.27
397.18	205.07
397.55	343.51
397.93	620.40
398.31	857.69
398.68	959.00
399.06	1050.74
399.44	1152.87
399.81	1231.78
400.19	1264.01
400.56	1279.02
400.94	1358.49
401.32	1374.32
401.69	1512.22
402.07	1593.05
402.44	1614.35
402.82	1668.41
403.19	1621.45
403.57	1647.66
403.95	1684.25
404.32	1795.39
404.70	1744.60
405.07	1756.88
405.45	1842.63
405.82	1908.43
406.20	1857.37
406.57	1869.11
406.95	1864.20
407.32	1958.40
407.70	2058.07
408.07	2056.98
408.45	2094.94
408.82	2369.09
409.20	2428.89
409.57	2473.13
409.95	2318.30
410.32	2174.67
410.70	2119.78
411.07	2343.97
411.45	2634.51
411.82	2701.41
412.20	2760.39
412.57	2747.55
412.95	2715.88
413.32	2641.33
413.70	2767.76
414.07	2854.60
414.45	2852.68
414.82	2808.72
415.19	2827.29
415.57	2869.61
415.94	2955.90
416.32	2976.11
416.69	3155.78
417.07	3226.51
417.44	3023.62
417.81	2976.11
418.19	3030.45
418.56	3089.98
418.94	3083.69
419.31	3232.51
419.68	3302.42
420.06	3234.15
420.43	3185.55
420.80	3401.81
421.18	3624.36
421.55	3661.50
421.93	3693.72
422.30	3702.18
422.67	3453.69
423.05	3457.52
423.42	3499.02
423.79	3786.01
424.17	3802.94
424.54	4007.47
424.91	3937.29
425.29	4001.46
425.66	3962.14
426.03	4041.60
426.40	4242.85
426.78	4279.16
427.15	4237.11
427.52	4083.10
427.90	4169.66
428.27	4505.53
428.64	4578.99
429.02	4436.17
429.39	4365.45
429.76	4198.61
430.13	3998.73
430.51	3623.81
430.88	3373.69
431.25	3624.63
431.62	4419.79
432.00	5207.85
432.37	5640.93
432.74	5294.68
433.11	5368.41
433.48	5767.35
433.86	5641.20
434.23	5033.63
434.60	5105.72
434.97	5481.73
435.35	5790.84
435.72	5833.43
436.09	5997.00
436.46	6329.04
436.83	6424.61
437.21	6296.28
437.58	5955.22
437.95	5985.26
438.32	5658.40
438.69	5418.93
439.06	5462.89
439.44	5860.74
439.81	6181.59
440.18	6172.58
440.55	6063.63
440.92	6013.38
441.29	6329.32
441.66	6408.50
442.03	6733.18
442.41	6683.75
442.78	6952.72
443.15	6829.29
443.52	6726.89
443.89	6850.87
444.26	6900.02
444.63	7067.68
445.00	7230.97
445.37	7170.35
445.74	6813.73
446.12	6546.40
446.49	6760.48
446.86	7058.39
447.23	7477.27
447.60	7734.77
447.97	8044.42
448.34	7808.22
448.71	7822.42
449.08	7915.26
449.45	8200.34
449.82	8247.31
450.19	8497.16
450.56	9107.73
450.93	9168.62
451.30	9260.64
451.67	9207.39
452.04	9310.89
452.41	9371.23
452.78	9073.59
453.15	8965.46
453.52	8781.96
453.89	9229.79
454.26	9830.80
454.63	10297.19
455.00	10005.28
455.37	9998.73
455.74	10218.54
456.11	10943.25
456.48	11012.34
456.85	11225.05
457.22	11205.39
457.59	11690.35
457.96	11750.43
458.33	11551.64
458.70	11502.21
459.07	11808.04
459.43	11881.22
459.80	12106.50
460.17	11953.86
460.54	12359.35
460.91	12634.33
461.28	12960.64
461.65	13260.46
462.02	13305.79
462.39	13395.08
462.76	13627.73
463.12	13661.32
463.49	13560.83
463.86	13497.48
464.23	13413.38
464.60	13087.61
464.97	12961.73
465.34	13282.03
465.70	13614.90
466.07	13883.59
466.44	13726.31
466.81	13174.99
467.18	13088.43
467.55	13415.83
467.91	13675.52
468.28	13663.77
468.65	14031.04
469.02	14022.58
469.39	14206.90
469.75	14172.76
470.12	14089.75
470.49	13533.80
470.86	13646.84
471.23	13881.13
471.59	14198.70
471.96	14832.48
472.33	15209.04
472.70	15259.82
473.06	15077.69
473.43	14661.27
473.80	15010.79
474.17	15258.19
474.53	15581.22
474.90	15911.90
475.27	16133.90
475.64	15828.34
476.00	15669.96
476.37	15548.45
476.74	15810.32
477.11	15982.89
477.47	16568.07
477.84	16964.28
478.21	17369.23
478.57	17035.82
478.94	16888.37
479.31	16948.72
479.67	17635.20
480.04	18165.48
480.41	17835.08
480.77	18067.18
481.14	17929.28
481.51	18357.99
481.87	18820.29
482.24	19219.78
482.61	18929.51
482.97	18647.98
483.34	19032.73
483.71	19034.37
484.07	19111.64
484.44	19119.84
484.80	19352.76
485.17	19431.40
485.54	19012.80
485.90	17898.15
486.27	15862.20
486.63	16095.12
487.00	17426.30
487.37	18524.56
487.73	19022.63
488.10	20242.40
488.46	20576.90
488.83	20238.30
489.19	19803.86
489.56	20569.80
489.93	21942.21
490.29	22451.20
490.66	22220.46
491.02	21705.47
491.39	22010.48
491.75	21651.94
492.12	20775.14
492.48	20368.00
492.85	21657.41
493.21	22616.40
493.58	22806.18
493.94	21789.84
494.31	22524.38
494.67	22989.68
495.04	23518.05
495.40	23429.31
495.77	22472.77
496.13	22695.04
496.50	22865.98
496.86	23380.70
497.23	23396.54
497.59	23146.14
497.96	23281.85
498.32	21930.20
498.69	21599.24
499.05	21907.80
499.41	22890.28
499.78	22885.37
500.14	22501.44
500.51	21753.52
500.87	21588.32
501.24	21411.65
501.60	21370.14
501.96	21089.71
502.33	21495.75
502.69	21737.41
503.06	22054.17
503.42	22464.03
503.78	22005.01
504.15	21222.42
504.51	21246.17
504.88	21789.30
505.24	22241.76
505.60	22372.56
505.97	23148.87
506.33	23187.65
506.69	22710.61
507.06	22257.60
507.42	22045.15
507.78	21999.01
508.15	21536.99
508.51	21554.46
508.87	22124.89
509.24	22747.47
509.60	22546.50
509.96	22101.68
510.33	22174.59
510.69	22233.57
511.05	22169.40
511.41	22846.32
511.78	23273.12
512.14	23077.60
512.50	22642.62
512.87	22245.04
513.23	22068.37
513.59	22337.33
513.95	21689.35
514.32	21722.12
514.68	21845.00
515.04	22242.31
515.40	22595.65
515.77	22860.79
516.13	23059.58
516.49	22042.70
516.85	19900.25
517.22	18592.83
517.58	19884.68
517.94	21276.48
518.30	21153.33
518.66	20712.34
519.03	21047.38
519.39	22653.26
519.75	22820.93
520.11	23578.67
520.47	23767.91
520.83	23416.47
521.20	23854.19
521.56	24274.44
521.92	24654.81
522.28	24589.82
522.64	24324.95
523.00	23861.57
523.37	23786.47
523.73	25218.14
524.09	25841.27
524.45	26370.46
524.81	26558.06
525.17	26089.48
525.53	25790.75
525.89	26499.08
526.26	25770.82
526.62	24339.43
526.98	23228.61
527.34	23873.31
527.70	25228.52
528.06	26519.56
528.42	26854.33
528.78	27594.88
529.14	28583.91
529.50	28589.64
529.86	27751.07
530.22	27504.49
530.59	28520.29
530.95	29405.55
531.31	29600.25
531.67	29308.89
532.03	29249.36
532.39	28299.11
532.75	27301.61
533.11	27252.46
533.47	28044.34
533.83	28994.60
534.19	28924.42
534.55	29033.10
534.91	29176.73
535.27	29765.72
535.63	30391.04
535.99	30837.49
536.35	30507.91
536.71	29748.79
537.07	28263.61
537.43	28766.32
537.79	29345.75
538.15	30015.58
538.51	30003.56
538.87	30147.19
539.22	29866.76
539.58	29376.61
539.94	28955.55
540.30	28686.31
540.66	28385.12
541.02	28126.80
541.38	28949.54
541.74	29548.91
542.10	29919.19
542.46	29775.83
542.82	29671.24
543.18	29394.09
543.53	29136.86
543.89	29786.48
544.25	30454.93
544.61	30038.24
544.97	30067.46
545.33	29904.44
545.69	30186.51
546.05	29708.11
546.40	29688.99
546.76	29810.78
547.12	29990.18
547.48	29642.57
547.84	29183.83
548.20	28856.15
548.55	29527.61
548.91	29787.30
549.27	29912.36
549.63	29927.65
549.99	29576.22
550.34	29288.96
550.70	29059.86
551.06	29219.60
551.42	29104.64
551.78	29458.80
552.13	29747.16
552.49	29408.29
552.85	28783.25
553.21	28902.85
553.57	28664.74
553.92	29140.41
554.28	29266.29
554.64	29323.36
555.00	29667.69
555.35	29501.95
555.71	29123.75
556.07	29056.03
556.42	28627.33
556.78	28120.52
557.14	27975.25
557.50	27783.29
557.85	28146.74
558.21	28181.14
558.57	27490.02
558.92	27028.27
559.28	26626.32
559.64	27287.68
559.99	27330.01
560.35	27249.18
560.71	28064.54
561.06	28829.39
561.42	28011.02
561.78	27450.70
562.13	27074.97
562.49	27334.65
562.85	27630.10
563.20	27929.38
563.56	27836.81
563.92	27292.87
564.27	27278.94
564.63	27473.91
564.98	27518.42
565.34	27363.59
565.70	26692.41
566.05	26028.32
566.41	26551.23
566.76	26867.71
567.12	27256.01
567.48	27462.99
567.83	27342.57
568.19	26644.07
568.54	26281.45
568.90	25968.52
569.25	26401.87
569.61	26599.56
569.97	26167.85
570.32	26114.61
570.68	25416.11
571.03	25010.34
571.39	25057.85
571.74	25593.60
572.10	26220.28
572.45	26535.94
572.81	26369.10
573.16	26368.28
573.52	26424.26
573.87	26184.51
574.23	26126.35
574.58	25816.42
574.94	25493.39
575.29	24929.51
575.65	24877.63
576.00	24780.97
576.36	24935.52
576.71	24983.58
577.07	25015.26
577.42	24900.84
577.78	24547.77
578.13	24115.51
578.48	23764.63
578.84	24093.94
579.19	24109.51
579.55	24097.77
579.90	24131.08
580.26	24451.93
580.61	24215.18
580.96	24057.90
581.32	23883.96
581.67	23912.90
582.03	24172.04
582.38	24121.25
582.73	24250.41
583.09	23875.49
583.44	23807.23
583.79	23592.33
584.15	23756.71
584.50	23749.88
584.86	23529.52
585.21	23167.17
585.56	22578.17
585.92	22230.02
586.27	22233.02
586.62	22673.74
586.98	22905.03
587.33	22957.18
587.68	22654.90
588.04	22441.91
588.39	21858.93
588.74	20607.21
589.09	19680.43
589.45	18896.74
589.80	19918.82
590.15	20537.03
590.51	21524.42
590.86	21629.28
591.21	21489.20
591.56	21461.35
591.92	21248.90
592.27	21410.28
592.62	21717.21
592.97	21434.59
593.33	21353.76
593.68	21580.68
594.03	21338.74
594.38	21437.04
594.74	21056.67
595.09	20985.67
595.44	21092.71
595.79	21580.68
596.14	21696.45
596.50	21735.23
596.85	21592.96
597.20	21652.22
597.55	21561.29
597.90	21601.97
598.26	21349.12
598.61	21425.03
598.96	21286.59
599.31	21721.85
599.66	21714.20
600.01	21843.09
600.37	21676.79
600.72	21411.38
601.07	21392.26
601.42	21464.08
601.77	21424.76
602.12	21343.66
602.47	21519.78
602.83	21988.36
603.18	22136.90
603.53	22310.84
603.88	22467.58
604.23	22251.86
604.58	22637.15
604.93	22636.61
605.28	22590.46
605.63	22434.00
605.98	22500.62
606.33	22575.72
606.69	22608.76
607.04	22779.15
607.39	22958.00
607.74	22676.48
608.09	22433.72
608.44	22538.58
608.79	22483.69
609.14	22836.22
609.49	22705.69
609.84	22573.80
610.19	22423.62
610.54	22551.69
610.89	22746.38
611.24	23121.84
611.59	23033.91
611.94	22813.28
612.29	22734.09
612.64	22928.79
612.99	23063.13
613.34	22863.52
613.69	22482.87
614.04	22541.58
614.39	23023.54
614.74	23299.33
615.09	23264.11
615.44	23228.61
615.79	23030.09
616.14	22384.84
616.48	22251.59
616.83	22628.14
617.18	22891.38
617.53	23237.07
617.88	23653.77
618.23	24006.02
618.58	23806.68
618.93	23630.28
619.28	23499.21
619.63	23806.68
619.98	24066.09
620.32	24118.52
620.67	24452.75
621.02	24188.42
621.37	23660.87
621.72	23642.30
622.07	23783.47
622.42	23713.57
622.76	23710.56
623.11	23399.82
623.46	23430.13
623.81	23419.48
624.16	23335.38
624.51	23238.44
624.85	23204.03
625.20	22905.30
625.55	22774.23
625.90	22828.02
626.25	23139.04
626.59	23442.42
626.94	23610.90
627.29	23237.62
627.64	22292.55
627.99	22122.43
628.33	22388.94
628.68	22834.03
629.03	22878.27
629.38	22668.28
629.72	22376.93
630.07	22027.13
630.42	22143.73
630.77	22491.89
631.11	22769.59
631.46	22130.90
631.81	21518.69
632.16	21687.17
632.50	22378.29
632.85	22873.35
633.20	22451.47
633.54	21965.97
633.89	21960.23
634.24	22161.75
634.58	22388.94
634.93	22266.34
635.28	22300.20
635.63	22099.49
635.97	21797.49
636.32	21832.99
636.67	21995.46
637.01	22117.24
637.36	22279.99
637.70	22282.17
638.05	22214.18
638.40	21996.55
638.74	22056.35
639.09	22041.88
639.44	21670.51
639.78	21252.73
640.13	21355.67
640.47	21346.11
640.82	21293.96
641.17	20944.44
641.51	20901.02
641.86	20991.68
642.20	21222.69
642.55	21334.10
642.90	21315.53
643.24	21097.90
643.59	21018.71
643.93	21124.66
644.28	21059.13
644.62	20997.69
644.97	20997.96
645.31	20850.23
645.66	20966.83
646.00	20593.01
646.35	20620.31
646.70	20654.17
647.04	20659.64
647.39	20536.21
647.73	20571.16
648.08	20423.71
648.42	20749.47
648.77	20431.08
649.11	20149.01
649.46	19317.26
649.80	19529.98
650.14	20201.16
650.49	20889.83
650.83	20891.47
651.18	20872.90
651.52	20443.10
651.87	20622.77
652.21	20629.60
652.56	20763.67
652.90	20872.35
653.25	20786.06
653.59	20846.41
653.93	20988.95
654.28	20705.24
654.62	20563.79
654.97	20230.11
655.31	20022.31
655.65	19301.42
656.00	17092.89
656.34	16282.99
656.69	17366.23
657.03	19310.43
657.37	20134.26
657.72	20585.91
658.06	21040.28
658.40	21273.75
658.75	21083.43
659.09	20982.40
659.43	21182.55
659.78	21421.48
660.12	21560.20
660.46	21721.30
660.81	21752.43
661.15	21898.79
661.49	22202.98
661.84	22226.20
662.18	22350.98
662.52	22159.57
662.87	22397.68
663.21	22208.17
663.55	22252.68
663.89	22512.36
664.24	22411.06
664.58	22762.76
664.92	22953.91
665.26	23219.32
665.61	23161.98
665.95	23302.61
666.29	23201.30
666.63	23326.36
666.98	23553.01
667.32	23713.57
667.66	23539.08
668.00	23637.11
668.35	24027.32
668.69	24317.03
669.03	24448.10
669.37	24400.59
669.71	24442.64
670.06	24483.60
670.40	24730.18
670.74	25002.42
671.08	24733.73
671.42	24813.46
671.77	24806.36
672.11	25181.28
672.45	25291.32
672.79	25702.01
673.13	26024.77
673.47	26023.40
673.81	26277.35
674.16	26501.26
674.50	26483.79
674.84	26550.14
675.18	26782.52
675.52	26929.70
675.86	27276.49
676.20	27451.79
676.54	27401.55
676.88	27603.07
677.23	27658.23
677.57	28167.49
677.91	28220.74
678.25	28385.67
678.59	28587.73
678.93	28826.94
679.27	28993.50
679.61	28887.83
679.95	29020.26
680.29	29602.98
680.63	29565.02
680.97	29747.97
681.31	29956.32
681.65	30227.75
681.99	30441.55
682.33	30541.49
682.67	30677.75
683.01	30888.01
683.35	30915.04
683.69	30943.17
684.03	30430.36
684.37	30829.58
684.71	31152.06
685.05	31805.50
685.39	31666.24
685.73	31643.03
686.07	31724.40
686.41	29892.97
686.75	24975.66
687.09	21881.59
687.43	22262.24
687.77	25332.01
688.11	28016.21
688.45	28776.42
688.79	28348.80
689.13	27654.95
689.47	28009.11
689.80	28785.16
690.14	29176.46
690.48	29940.48
690.82	30655.91
691.16	30777.42
691.50	31286.41
691.84	31954.32
692.18	32380.02
692.52	32848.60
692.85	32764.50
693.19	32960.83
693.53	33110.47
693.87	32935.98
694.21	32886.28
694.55	32913.59
694.88	33446.33
695.22	33720.49
695.56	33928.83
695.90	34044.61
696.24	34372.29
696.58	34771.78
696.91	35405.83
697.25	35245.82
697.59	34788.44
697.93	34500.08
698.27	34885.10
698.60	34832.67
698.94	34661.19
699.28	34707.88
699.62	34946.81
699.95	34470.32
700.29	34136.36
700.63	34402.87
700.97	34150.29
701.30	34428.81
701.64	34207.90
701.98	34525.48
702.32	34307.85
702.65	34395.23
702.99	35072.69
703.33	35036.38
703.66	35023.27
704.00	35106.28
704.34	35472.18
704.68	36286.73
705.01	35910.45
705.35	35466.18
705.69	35288.96
706.02	35584.96
706.36	35702.38
706.70	35598.89
707.03	35682.72
707.37	35951.41
707.71	36014.76
708.04	35887.24
708.38	35597.79
708.72	35227.52
709.05	35221.24
709.39	35833.45
709.72	35828.80
710.06	35868.94
710.40	35918.91
710.73	35907.17
711.07	35675.34
711.40	35604.62
711.74	35547.82
712.08	35507.68
712.41	35537.99
712.75	35706.74
713.08	35586.60
713.42	35171.54
713.75	35840.82
714.09	35967.25
714.43	35710.29
714.76	34841.68
715.10	34642.35
715.43	35093.45
715.77	35262.20
716.10	34621.59
716.44	33592.42
716.77	32467.95
717.11	31307.71
717.44	30740.01
717.78	30259.15
718.11	30015.85
718.45	28804.82
718.78	28591.56
719.12	28247.22
719.45	29167.17
719.79	28974.12
720.12	29184.65
720.46	28957.73
720.79	30433.91
721.12	31910.63
721.46	33549.82
721.79	33823.71
722.13	33511.05
722.46	33260.92
722.80	33048.48
723.13	31762.08
723.46	30802.82
723.80	30483.06
724.13	30283.18
724.47	30554.87
724.80	30855.52
725.13	30374.38
725.47	30836.95
725.80	31246.54
726.14	31349.21
726.47	31040.38
726.80	31742.97
727.14	31433.86
727.47	30415.34
727.80	30288.64
728.14	31072.05
728.47	32064.09
728.80	30660.82
729.14	29788.12
729.47	30579.18
729.80	32134.54
730.14	31770.82
730.47	31475.91
730.80	31224.97
731.14	31349.21
731.47	31715.66
731.80	31793.76
732.14	32587.01
732.47	32746.75
732.80	32788.80
733.13	32937.89
733.47	33449.88
733.80	33770.19
734.13	34111.24
734.46	33748.07
734.80	33530.98
735.13	33474.73
735.46	33111.83
735.79	33014.08
736.13	33299.43
736.46	33141.32
736.79	33231.71
737.12	33604.16
737.45	33500.95
737.79	33595.97
738.12	33491.12
738.45	32845.32
738.78	32325.96
739.11	32497.17
739.45	32925.33
739.78	33245.63
740.11	33326.19
740.44	33139.68
740.77	32981.85
741.10	32655.00
741.44	32567.35
741.77	32685.85
742.10	32719.99
742.43	32846.42
742.76	33174.64
743.09	33625.74
743.42	33660.41
743.75	33880.78
744.08	33325.37
744.42	32898.30
744.75	33012.16
745.08	33272.67
745.41	33674.07
745.74	33459.71
746.07	33262.84
746.40	33297.79
746.73	33253.28
747.06	33466.54
747.39	33293.42
747.72	33189.38
748.05	33292.87
748.38	33297.51
748.71	33292.87
749.04	32778.42
749.37	32505.91
749.71	32455.66
750.04	32531.85
750.37	33192.11
750.70	32644.35
751.03	32183.97
751.36	32179.87
751.69	32488.98
752.02	32852.97
752.34	32401.87
752.67	32107.78
753.00	31942.03
753.33	32203.35
753.66	32707.97
753.99	32513.82
754.32	32448.02
754.65	32521.47
754.98	32209.09
755.31	31913.63
755.64	31625.28
755.97	32013.85
756.30	31916.91
756.63	31828.98
756.96	31575.31
757.29	31426.49
757.61	31507.59
757.94	31505.13
758.27	31071.24
758.60	30519.10
758.93	30172.31
759.26	26273.25
759.59	18172.58
759.92	10571.34
760.24	5945.94
760.57	4195.88
760.90	4314.11
761.23	6329.32
761.56	11090.43
761.89	16309.48
762.22	16692.86
762.54	14108.87
762.87	11723.67
763.20	11486.10
763.53	11803.95
763.86	12534.39
764.18	13726.31
764.51	15219.14
764.84	16656.54
765.17	17819.51
765.50	19191.38
765.82	20263.15
766.15	21099.54
766.48	22465.40
766.81	23641.75
767.13	24770.05
767.46	25992.82
767.79	26259.33
768.12	26827.57
768.44	27091.35
768.77	27287.68
769.10	27172.45
769.42	27189.11
769.75	27179.82
770.08	27163.17
770.41	27708.47
770.73	27860.02
771.06	27553.64
771.39	27247.54
771.71	26813.65
772.04	26985.40
772.37	26880.27
772.69	26790.98
773.02	26828.12
773.35	26865.53
773.67	26893.38
774.00	26696.23
774.33	26286.63
774.65	25880.04
774.98	25707.20
775.30	25851.10
775.63	26099.04
775.96	25777.10
776.28	25881.14
776.61	25968.24
776.93	25958.41
777.26	25440.41
777.59	24971.84
777.91	24746.84
778.24	24854.42
778.56	24766.22
778.89	24864.80
779.22	24705.88
779.54	24623.68
779.87	24380.66
780.19	24418.61
780.52	24104.05
780.84	23971.06
781.17	24151.29
781.49	23919.18
781.82	23870.58
782.14	23763.81
782.47	23887.23
782.79	23646.67
783.12	23186.28
783.44	22926.33
783.77	22676.48
784.09	22781.06
784.42	22859.43
784.74	22856.42
785.07	22663.64
785.39	22343.07
