SpectraSuite Data File
++++++++++++++++++++++++++++++++++++
Date: Mon Apr 24 13:59:56 ART 2023
User: guille
Dark Spectrum Present: No
Reference Spectrum Present: No
Number of Sampled Component Spectra: 1
Spectrometers: USB2+H13674
Integration Time (usec): 2000 (USB2+H13674)
Spectra Averaged: 10 (USB2+H13674)
Boxcar Smoothing: 0 (USB2+H13674)
Correct for Electrical Dark: No (USB2+H13674)
Strobe/Lamp Enabled: No (USB2+H13674)
Correct for Detector Non-linearity: No (USB2+H13674)
Correct for Stray Light: No (USB2+H13674)
Number of Pixels in Processed Spectrum: 2048
>>>>>Begin Processed Spectral Data<<<<<
339.87	0.00
340.25	0.00
340.63	0.00
341.02	0.00
341.40	0.00
341.78	0.00
342.16	0.00
342.55	0.00
342.93	0.00
343.31	0.00
343.69	0.00
344.08	0.00
344.46	0.00
344.84	0.00
345.22	0.00
345.60	0.00
345.99	0.00
346.37	0.00
346.75	0.00
347.13	0.00
347.51	0.00
347.90	0.00
348.28	0.00
348.66	0.00
349.04	0.00
349.42	0.00
349.80	0.00
350.19	0.00
350.57	0.00
350.95	0.00
351.33	0.00
351.71	0.00
352.09	0.00
352.47	0.00
352.86	0.00
353.24	0.00
353.62	0.00
354.00	0.00
354.38	0.00
354.76	0.00
355.14	0.00
355.52	0.00
355.90	0.00
356.28	0.00
356.67	0.00
357.05	0.00
357.43	0.00
357.81	0.00
358.19	0.00
358.57	0.00
358.95	0.00
359.33	0.00
359.71	0.00
360.09	0.00
360.47	0.00
360.85	0.00
361.23	0.00
361.61	0.00
361.99	0.00
362.37	0.00
362.75	0.00
363.13	0.00
363.51	0.00
363.89	0.00
364.27	0.00
364.65	0.00
365.03	0.00
365.41	0.00
365.79	0.00
366.17	0.00
366.55	0.00
366.93	0.00
367.31	0.00
367.69	0.00
368.07	0.00
368.45	0.00
368.83	0.00
369.21	0.00
369.59	0.00
369.97	0.00
370.35	0.00
370.73	0.00
371.11	0.00
371.49	0.00
371.87	0.00
372.25	0.00
372.62	0.00
373.00	0.00
373.38	0.00
373.76	0.00
374.14	0.00
374.52	0.00
374.90	0.00
375.28	0.00
375.66	0.00
376.03	0.00
376.41	0.00
376.79	0.00
377.17	0.00
377.55	0.00
377.93	0.00
378.31	0.00
378.68	0.00
379.06	0.00
379.44	0.00
379.82	0.00
380.20	0.00
380.58	0.00
380.95	0.00
381.33	0.00
381.71	0.00
382.09	0.00
382.47	0.00
382.85	0.00
383.22	0.00
383.60	0.00
383.98	0.00
384.36	0.00
384.73	1.37
385.11	0.00
385.49	0.00
385.87	0.00
386.25	5.73
386.62	0.55
387.00	8.46
387.38	3.55
387.76	31.40
388.13	36.32
388.51	34.95
388.89	51.34
389.26	119.60
389.64	130.52
390.02	166.02
390.40	181.59
390.77	234.01
391.15	282.07
391.53	309.11
391.90	318.12
392.28	259.14
392.66	209.71
393.04	127.25
393.41	64.17
393.79	151.28
394.17	242.75
394.54	353.89
394.92	448.10
395.30	534.66
395.67	594.18
396.05	519.09
396.42	380.38
396.80	250.67
397.18	246.58
397.55	453.28
397.93	665.73
398.31	847.31
398.68	942.61
399.06	1013.06
399.44	1097.17
399.81	1160.24
400.19	1181.54
400.56	1220.04
400.94	1256.09
401.32	1341.83
401.69	1427.84
402.07	1495.56
402.44	1533.25
402.82	1584.58
403.19	1588.40
403.57	1531.88
403.95	1611.34
404.32	1691.35
404.70	1613.25
405.07	1668.68
405.45	1740.50
405.82	1770.81
406.20	1780.37
406.57	1770.54
406.95	1765.08
407.32	1893.69
407.70	1967.14
408.07	1990.63
408.45	2022.03
408.82	2256.59
409.20	2330.04
409.57	2250.58
409.95	2097.94
410.32	2043.33
410.70	2044.42
411.07	2323.49
411.45	2526.10
411.82	2593.82
412.20	2596.28
412.57	2602.01
412.95	2578.53
413.32	2549.58
413.70	2633.69
414.07	2713.97
414.45	2772.68
414.82	2713.42
415.19	2781.96
415.57	2740.73
415.94	2864.70
416.32	2915.22
416.69	3028.81
417.07	2999.32
417.44	2860.88
417.81	2805.72
418.19	2899.38
418.56	2946.07
418.94	3015.70
419.31	3095.71
419.68	3088.88
420.06	3118.92
420.43	3080.14
420.80	3255.18
421.18	3507.21
421.55	3496.57
421.93	3581.21
422.30	3480.18
422.67	3308.43
423.05	3314.98
423.42	3371.78
423.79	3594.59
424.17	3654.94
424.54	3785.74
424.91	3799.66
425.29	3789.02
425.66	3812.77
426.03	3832.71
426.40	4029.86
426.78	4062.90
427.15	3985.89
427.52	3938.11
427.90	3979.89
428.27	4338.69
428.64	4272.06
429.02	4196.97
429.39	4159.83
429.76	3952.03
430.13	3669.69
430.51	3402.63
430.88	3253.27
431.25	3590.50
431.62	4466.48
432.00	5138.76
432.37	5373.32
432.74	5037.46
433.11	5169.35
433.48	5565.83
433.86	5268.19
434.23	4787.33
434.60	4913.21
434.97	5370.32
435.35	5524.05
435.72	5620.99
436.09	5852.28
436.46	6102.40
436.83	6157.29
437.21	5984.71
437.58	5696.63
437.95	5678.61
438.32	5364.59
438.69	5211.12
439.06	5306.70
439.44	5682.16
439.81	5870.30
440.18	5933.65
440.55	5726.94
440.92	5845.72
441.29	6109.77
441.66	6317.30
442.03	6458.47
442.41	6497.52
442.78	6593.91
443.15	6560.60
443.52	6513.09
443.89	6489.06
444.26	6650.98
444.63	6875.44
445.00	6996.68
445.37	6788.88
445.74	6500.53
446.12	6403.59
446.49	6630.50
446.86	6858.78
447.23	7268.65
447.60	7527.24
447.97	7675.24
448.34	7624.72
448.71	7500.21
449.08	7629.91
449.45	7859.83
449.82	8036.23
450.19	8340.42
450.56	8883.82
450.93	8908.12
451.30	8979.11
451.67	8928.05
452.04	9008.06
452.41	9013.25
452.78	8692.40
453.15	8633.42
453.52	8615.94
453.89	9014.61
454.26	9578.76
454.63	9872.03
455.00	9718.02
455.37	9718.84
455.74	9954.49
456.11	10633.87
456.48	10650.80
456.85	11038.01
457.22	11009.06
457.59	11280.21
457.96	11303.97
458.33	11142.32
458.70	11173.99
459.07	11380.43
459.43	11517.23
459.80	11737.05
460.17	11792.48
460.54	12186.51
460.91	12325.77
461.28	12647.16
461.65	12832.03
462.02	12866.43
462.39	13010.88
462.76	13210.22
463.12	13316.99
463.49	13174.72
463.86	13104.00
464.23	13028.63
464.60	12649.62
464.97	12583.27
465.34	12907.94
465.70	13333.10
466.07	13489.56
466.44	13370.23
466.81	12909.03
467.18	12715.97
467.55	13276.30
467.91	13289.13
468.28	13362.31
468.65	13644.66
469.02	13713.47
469.39	13732.86
469.75	13780.10
470.12	13529.43
470.49	13156.42
470.86	13372.14
471.23	13555.64
471.59	14092.21
471.96	14544.67
472.33	14964.92
472.70	14863.88
473.06	14689.40
473.43	14241.30
473.80	14809.82
474.17	14933.52
474.53	15465.99
474.90	15528.52
475.27	15790.39
475.64	15416.29
476.00	15313.35
476.37	15152.24
476.74	15456.98
477.11	15600.06
477.47	16230.02
477.84	16734.64
478.21	17074.33
478.57	16722.07
478.94	16483.42
479.31	16781.60
479.67	17387.25
480.04	17690.08
480.41	17222.32
480.77	17581.95
481.14	17524.33
481.51	18062.54
481.87	18330.41
482.24	18667.37
482.61	18434.72
482.97	18300.38
483.34	18678.57
483.71	18631.05
484.07	18593.10
484.44	18733.18
484.80	18884.73
485.17	18991.50
485.54	18383.66
485.90	16770.13
486.27	15439.50
486.63	15770.72
487.00	17372.24
487.37	18408.51
487.73	18881.45
488.10	20070.91
488.46	19940.12
488.83	19529.16
489.19	19408.19
489.56	20281.44
489.93	21699.46
490.29	21939.75
490.66	21532.62
491.02	21215.59
491.39	21398.00
491.75	20896.93
492.12	20342.34
492.48	20036.78
492.85	21600.34
493.21	22229.20
493.58	22232.75
493.94	21553.64
494.31	22118.34
494.67	23017.26
495.04	23111.19
495.40	22859.43
495.77	21847.18
496.13	22331.60
496.50	22716.62
496.86	22924.42
497.23	23024.36
497.59	22783.24
497.96	22799.08
498.32	21504.76
498.69	21268.29
499.05	21667.24
499.41	22613.67
499.78	22605.21
500.14	22090.76
500.51	21209.58
500.87	21337.38
501.24	21157.70
501.60	20966.83
501.96	20914.13
502.33	21464.08
502.69	21631.74
503.06	21997.37
503.42	22297.19
503.78	21701.92
504.15	20902.39
504.51	21283.04
504.88	21964.33
505.24	21935.38
505.60	22279.17
505.97	23139.59
506.33	22896.02
506.69	22510.18
507.06	22005.29
507.42	21940.03
507.78	21760.35
508.15	21368.23
508.51	21565.11
508.87	22234.39
509.24	22771.23
509.60	22311.12
509.96	21988.63
510.33	22142.09
510.69	22253.77
511.05	22035.60
511.41	22838.95
511.78	23284.59
512.14	22769.86
512.50	22530.93
512.87	22216.91
513.23	22175.68
513.59	22285.45
513.95	21802.40
514.32	21666.14
514.68	21804.86
515.04	22260.87
515.40	22666.92
515.77	22848.23
516.13	22749.93
516.49	21644.85
516.85	19597.70
517.22	18485.24
517.58	20265.61
517.94	21582.31
518.30	20857.06
518.66	20569.53
519.03	21474.18
519.39	22546.50
519.75	23104.64
520.11	23767.91
520.47	23838.36
520.83	23538.53
521.20	24098.31
521.56	24537.67
521.92	24858.24
522.28	24608.94
522.64	24205.63
523.00	23805.59
523.37	24101.59
523.73	25227.43
524.09	25993.09
524.45	26356.54
524.81	26612.40
525.17	26225.20
525.53	26070.92
525.89	26331.42
526.26	25309.34
526.62	24082.75
526.98	23300.15
527.34	24202.35
527.70	25875.68
528.06	26613.22
528.42	27089.98
528.78	27746.70
529.14	28855.06
529.50	28561.79
529.86	27897.16
530.22	27715.02
530.59	28804.82
530.95	29814.33
531.31	29813.51
531.67	29400.37
532.03	29174.00
532.39	28324.50
532.75	27201.12
533.11	27591.05
533.47	28512.37
533.83	29016.17
534.19	29169.08
534.55	29138.77
534.91	29597.52
535.27	30005.47
535.63	30862.62
535.99	30987.68
536.35	30480.87
536.71	29608.44
537.07	28573.53
537.43	29382.62
537.79	29904.17
538.15	30395.68
538.51	30261.88
538.87	30196.89
539.22	29864.03
539.58	29369.78
539.94	29125.94
540.30	28812.74
540.66	28530.94
541.02	28565.07
541.38	29118.29
541.74	29978.99
542.10	30181.05
542.46	30030.59
542.82	29733.23
543.18	29589.87
543.53	29495.67
543.89	30243.86
544.25	30705.88
544.61	30160.03
544.97	30358.00
545.33	30188.42
545.69	30525.66
546.05	29800.13
546.40	30214.09
546.76	30016.67
547.12	30188.70
547.48	29604.07
547.84	29132.49
548.20	29294.14
548.55	29684.08
548.91	30024.86
549.27	29987.72
549.63	30231.30
549.99	29945.40
550.34	29706.47
550.70	29482.29
551.06	29483.38
551.42	29565.57
551.78	29805.86
552.13	29999.19
552.49	29627.01
552.85	29196.66
553.21	28941.08
553.57	29107.64
553.92	29556.56
554.28	29582.23
554.64	29741.97
555.00	29952.77
555.35	29754.26
555.71	29370.06
556.07	29337.56
556.42	28953.36
556.78	28266.88
557.14	28260.33
557.50	28186.88
557.85	28569.71
558.21	28478.23
558.57	27779.47
558.92	27275.12
559.28	27047.66
559.64	27631.74
559.99	27601.70
560.35	27569.21
560.71	28559.61
561.06	29106.00
561.42	28088.57
561.78	27672.97
562.13	27684.71
562.49	27838.72
562.85	28121.34
563.20	28406.42
563.56	28178.68
563.92	27648.67
564.27	27740.69
564.63	27962.15
564.98	27979.90
565.34	27545.45
565.70	26860.89
566.05	26496.89
566.41	27002.06
566.76	27495.48
567.12	27727.04
567.48	27918.73
567.83	27677.62
568.19	26917.68
568.54	26580.18
568.90	26466.58
569.25	26983.49
569.61	26836.04
569.97	26706.06
570.32	26561.06
570.68	25719.48
571.03	25392.90
571.39	25721.67
571.74	26324.32
572.10	26724.08
572.45	26897.48
572.81	26821.02
573.16	26775.96
573.52	26694.86
573.87	26502.35
574.23	26622.77
574.58	26238.03
574.94	25869.67
575.29	25289.68
575.65	25321.36
576.00	25219.23
576.36	25300.61
576.71	25365.05
577.07	25355.76
577.42	25329.00
577.78	25028.91
578.13	24495.62
578.48	24047.52
578.84	24561.97
579.19	24639.79
579.55	24595.83
579.90	24638.98
580.26	24738.37
580.61	24525.93
580.96	24357.72
581.32	24354.99
581.67	24379.84
582.03	24525.65
582.38	24530.30
582.73	24676.11
583.09	24272.25
583.44	24225.56
583.79	23913.45
584.15	24185.69
584.50	24187.88
584.86	23912.90
585.21	23421.39
585.56	22800.45
585.92	22710.88
586.27	22672.93
586.62	23130.31
586.98	23200.76
587.33	23341.93
587.68	22840.31
588.04	22790.89
588.39	22185.24
588.74	20623.05
589.09	19835.53
589.45	19318.35
589.80	20422.62
590.15	21240.44
590.51	21976.34
590.86	21882.68
591.21	21751.89
591.56	21873.94
591.92	21683.62
592.27	21878.04
592.62	21983.44
592.97	21704.92
593.33	21630.37
593.68	21899.07
594.03	21767.72
594.38	21756.53
594.74	21305.43
595.09	21330.82
595.44	21475.82
595.79	21994.09
596.14	21968.15
596.50	21929.10
596.85	22090.76
597.20	21985.63
597.55	21764.45
597.90	21808.41
598.26	21693.18
598.61	21590.23
598.96	21771.00
599.31	21949.86
599.66	22074.92
600.01	22005.01
600.37	22037.51
600.72	21687.72
601.07	21653.58
601.42	21781.38
601.77	21594.87
602.12	21538.90
602.47	21909.72
602.83	22376.93
603.18	22472.50
603.53	22643.16
603.88	22534.48
604.23	22521.10
604.58	22872.81
604.93	22936.98
605.28	22721.26
605.63	22702.42
605.98	22849.87
606.33	22799.63
606.69	22951.45
607.04	23034.19
607.39	23062.86
607.74	22952.81
608.09	22730.54
608.44	22767.95
608.79	22949.81
609.14	23168.53
609.49	23049.48
609.84	22845.23
610.19	22614.22
610.54	22770.95
610.89	23103.00
611.24	23388.90
611.59	23349.85
611.94	23077.06
612.29	22961.01
612.64	23201.57
612.99	23444.33
613.34	23037.19
613.69	22665.28
614.04	22941.07
614.39	23446.78
614.74	23577.85
615.09	23711.38
615.44	23481.46
615.79	22945.99
616.14	22641.25
616.48	22678.93
616.83	23076.51
617.18	23252.64
617.53	23646.12
617.88	24058.72
618.23	24280.99
618.58	24040.15
618.93	23914.81
619.28	23922.46
619.63	24217.91
619.98	24454.93
620.32	24446.47
620.67	24651.54
621.02	24262.15
621.37	23891.60
621.72	23965.06
622.07	24187.88
622.42	24152.38
622.76	23796.58
623.11	23762.17
623.46	23671.52
623.81	23804.77
624.16	23430.13
624.51	23590.14
624.85	23353.40
625.20	23151.06
625.55	23047.02
625.90	23161.16
626.25	23523.52
626.59	23683.26
626.94	23863.75
627.29	23379.61
627.64	22388.67
627.99	22259.78
628.33	22742.01
628.68	23127.85
629.03	23024.36
629.38	22726.72
629.72	22453.38
630.07	22331.05
630.42	22486.70
630.77	22652.45
631.11	22659.00
631.46	22368.73
631.81	21787.11
632.16	21830.80
632.50	22323.95
632.85	22920.05
633.20	22532.30
633.54	22109.32
633.89	22195.89
634.24	22104.68
634.58	22415.97
634.93	22376.11
635.28	22364.09
635.63	22016.21
635.97	21874.49
636.32	21865.75
636.67	22041.06
637.01	22121.89
637.36	22242.31
637.70	22183.60
638.05	22107.69
638.40	22060.45
638.74	22057.99
639.09	21902.07
639.44	21567.30
639.78	21130.67
640.13	21316.62
640.47	21244.26
640.82	21192.38
641.17	21044.38
641.51	20822.93
641.86	20783.06
642.20	20982.12
642.55	21336.28
642.90	21101.18
643.24	20886.55
643.59	20862.25
643.93	21028.00
644.28	20881.09
644.62	20858.70
644.97	20712.06
645.31	20668.10
645.66	20747.56
646.00	20261.24
646.35	20395.04
646.70	20260.15
647.04	20349.98
647.39	20309.84
647.73	20244.03
648.08	20392.85
648.42	20497.71
648.77	20183.41
649.11	19749.52
649.46	19068.50
649.80	19554.01
650.14	20253.32
650.49	20685.30
650.83	20689.13
651.18	20472.31
651.52	20172.49
651.87	20398.04
652.21	20491.98
652.56	20556.69
652.90	20606.12
653.25	20606.66
653.59	20554.23
653.93	20793.71
654.28	20393.95
654.62	20302.20
654.97	19909.53
655.31	19608.89
655.65	18603.48
656.00	16450.92
656.34	16334.05
656.69	17595.33
657.03	19279.03
657.37	20037.05
657.72	20406.23
658.06	20871.26
658.40	20945.81
658.75	20932.97
659.09	20821.83
659.43	20948.54
659.78	21301.88
660.12	21323.18
660.46	21481.01
660.81	21588.87
661.15	21622.45
661.49	22091.85
661.84	22013.48
662.18	22254.32
662.52	21926.37
662.87	22035.05
663.21	21876.68
663.55	22050.07
663.89	22309.48
664.24	22268.52
664.58	22704.60
664.92	22821.20
665.26	23030.36
665.61	22879.09
665.95	23084.70
666.29	23091.80
666.63	23260.83
666.98	23412.11
667.32	23565.02
667.66	23399.00
668.00	23681.62
668.35	23834.81
668.69	24176.13
669.03	24294.92
669.37	24253.14
669.71	24389.40
670.06	24314.03
670.40	24684.58
670.74	24727.45
671.08	24738.64
671.42	24768.13
671.77	24813.19
672.11	25120.11
672.45	25439.87
672.79	25676.89
673.13	25718.94
673.47	25928.65
673.81	26229.56
674.16	26268.61
674.50	26286.91
674.84	26449.93
675.18	26739.37
675.52	26964.38
675.86	27081.25
676.20	27302.70
676.54	27241.81
676.88	27417.66
677.23	27641.57
677.57	28011.84
677.91	28149.47
678.25	28069.46
678.59	28517.56
678.93	28775.33
679.27	28807.82
679.61	28817.38
679.95	29001.97
680.29	29444.60
680.63	29585.50
680.97	29560.38
681.31	29850.10
681.65	30092.58
681.99	30252.87
682.33	30416.70
682.67	30333.15
683.01	30633.79
683.35	30663.28
683.69	30372.20
684.03	30176.68
684.37	30712.43
684.71	31013.89
685.05	31348.67
685.39	31379.25
685.73	31235.62
686.07	31225.24
686.41	28400.68
686.75	23857.74
687.09	21538.08
687.43	22698.05
687.77	25874.86
688.11	27979.35
688.45	28261.42
688.79	27801.04
689.13	27489.20
689.47	27952.59
689.80	28461.58
690.14	29195.57
690.48	29783.47
690.82	30331.78
691.16	30429.27
691.50	31008.43
691.84	31685.63
692.18	32138.91
692.52	32508.36
692.85	32525.29
693.19	32824.30
693.53	32562.70
693.87	32395.59
694.21	32559.15
694.55	32588.10
694.88	33184.47
695.22	33491.12
695.56	33440.33
695.90	33635.29
696.24	34012.66
696.58	34370.65
696.91	34875.00
697.25	34672.11
697.59	34212.82
697.93	33993.55
698.27	34392.49
698.60	34328.87
698.94	34377.75
699.28	34394.13
699.62	34488.89
699.95	34042.97
700.29	33715.03
700.63	34103.05
700.97	33869.58
701.30	33980.72
701.64	33959.14
701.98	34148.10
702.32	33954.78
702.65	34032.87
702.99	34727.54
703.33	34772.32
703.66	34557.15
704.00	34682.76
704.34	35109.01
704.68	35745.52
705.01	35403.37
705.35	34895.20
705.69	34870.08
706.02	35385.62
706.36	35183.83
706.70	35227.25
707.03	35269.03
707.37	35703.47
707.71	35469.73
708.04	35308.89
708.38	34993.51
708.72	34708.43
709.05	34833.22
709.39	35451.43
709.72	35302.34
710.06	35455.25
710.40	35447.61
710.73	35455.53
711.07	35366.24
711.40	35151.61
711.74	35124.85
712.08	35060.41
712.41	35078.15
712.75	35174.27
713.08	35091.26
713.42	34866.53
713.75	35452.52
714.09	35463.72
714.43	34817.38
714.76	34305.93
715.10	34075.74
715.43	34769.87
715.77	34585.28
716.10	33860.02
716.44	33059.13
716.77	31878.14
717.11	30835.86
717.44	30174.77
717.78	29862.12
718.11	29332.37
718.45	28400.14
718.78	28245.58
719.12	28061.27
719.45	28825.84
719.79	28719.08
720.12	28829.67
720.46	28828.03
720.79	30435.55
721.12	32065.46
721.46	33051.21
721.79	33267.75
722.13	33089.99
722.46	32614.58
722.80	32440.92
723.13	31073.97
723.46	30243.58
723.80	30040.97
724.13	29936.11
724.47	30404.42
724.80	30379.30
725.13	30030.32
725.47	30409.61
725.80	31041.20
726.14	30783.15
726.47	30775.24
726.80	31399.46
727.14	30964.74
727.47	29862.66
727.80	29888.06
728.14	30963.38
728.47	31404.65
728.80	29857.75
729.14	29390.26
729.47	30446.20
729.80	31630.19
730.14	31226.06
730.47	30947.81
730.80	30781.52
731.14	31022.63
731.47	31476.73
731.80	31526.16
732.14	32196.53
732.47	32369.65
732.80	32192.70
733.13	32507.54
733.47	32978.30
733.80	33671.88
734.13	33693.18
734.46	33325.91
734.80	32908.13
735.13	33083.43
735.46	32565.16
735.79	32572.81
736.13	32776.24
736.46	32664.01
736.79	32856.25
737.12	33221.06
737.45	33192.93
737.79	33158.80
738.12	32863.07
738.45	32207.18
738.78	31929.47
739.11	32177.96
739.45	32778.42
739.78	32840.41
740.11	33090.81
740.44	32647.08
740.77	32414.70
741.10	32156.93
741.44	32273.26
741.77	32327.60
742.10	32372.38
742.43	32540.86
742.76	32814.74
743.09	33402.64
743.42	33179.28
743.75	33553.65
744.08	32860.07
744.42	32592.47
744.75	32748.39
745.08	33034.56
745.41	33220.78
745.74	32973.94
746.07	32813.92
746.40	32902.39
746.73	33202.49
747.06	33070.87
747.39	32954.00
747.72	32958.37
748.05	32892.84
748.38	32929.15
748.71	32931.88
749.04	32410.88
749.37	32083.21
749.71	32267.52
750.04	32333.60
750.37	32628.51
750.70	32309.57
751.03	31902.16
751.36	32069.28
751.69	32293.74
752.02	32378.66
752.34	31992.28
752.67	31951.59
753.00	31763.72
753.33	31999.38
753.66	32324.87
753.99	32198.16
754.32	32076.92
754.65	32082.66
754.98	31936.02
755.31	31737.24
755.64	31330.92
755.97	31712.11
756.30	31679.89
756.63	31570.12
756.96	31190.29
757.29	31178.82
757.61	31157.25
757.94	31279.86
758.27	30541.49
758.60	30302.02
758.93	29548.91
759.26	24512.82
759.59	16122.43
759.92	9432.40
760.24	5806.40
760.57	4437.81
760.90	4900.38
761.23	7391.80
761.56	12470.76
761.89	16654.63
762.22	15938.11
762.54	13233.15
762.87	11499.48
763.20	11551.64
763.53	12024.58
763.86	12863.43
764.18	13831.98
764.51	15401.27
764.84	17025.45
765.17	17904.16
765.50	19285.59
765.82	20307.66
766.15	21296.69
766.48	22553.87
766.81	23664.42
767.13	24883.64
767.46	25694.64
767.79	26331.69
768.12	26479.69
768.44	27023.08
768.77	27019.81
769.10	27043.29
769.42	26993.32
769.75	26822.93
770.08	26998.51
770.41	27631.47
770.73	27638.02
771.06	27208.49
771.39	27012.98
771.71	26801.63
772.04	26927.51
772.37	26843.96
772.69	26816.92
773.02	26779.51
773.35	26774.60
773.67	26719.98
774.00	26460.03
774.33	26228.20
774.65	25710.20
774.98	25699.28
775.30	25977.80
775.63	26230.66
775.96	25700.37
776.28	25963.60
776.61	25805.50
776.93	25708.29
777.26	25369.69
777.59	24998.60
777.91	24849.78
778.24	24731.82
778.56	24770.05
778.89	24809.91
779.22	24606.48
779.54	24636.24
779.87	24197.98
780.19	24340.25
780.52	24193.88
780.84	23992.91
781.17	24024.04
781.49	23958.50
781.82	23991.27
782.14	23709.74
782.47	23971.06
782.79	23686.81
783.12	23197.48
783.44	22930.97
783.77	22834.03
784.09	22897.93
784.42	22973.02
784.74	22795.26
785.07	22762.49
785.39	22544.86
